TEXTURE AT STRAIN = 0
1.0   1.0   1.0
DISCRETE TEXTURE FROM ODF FILE RD_625C_initial
B 4327
 192.860  104.853  324.566      3046.50
 351.944   29.307   73.967      2775.04
 351.718   80.060  211.738      2708.93
 179.745   82.421  151.434      2554.22
   4.003  153.215  246.156      2537.34
 201.282   39.025  336.740      2392.47
 342.692  135.132  233.166      2368.56
 173.620  133.595  327.054      2319.33
   6.510   93.177   30.932      2295.42
   4.715  139.649  257.321      2295.42
 168.356   16.938  211.283      2219.47
 226.678   27.144  222.079      2213.84
 184.040   84.751  320.910      2213.84
  14.022  137.972  214.663      2204.00
  23.070  136.345  237.104      2099.92
 348.542   51.905   65.752      2073.19
   7.960  138.529  259.653      2036.62
  13.049  145.426  231.883      2031.00
 189.767   86.541  141.086      2029.59
 189.858  150.398  109.607      2016.93
 203.398  134.705   13.586      2000.05
 147.992  145.783  100.760      1984.58
  28.298   34.421   45.132      1957.86
 166.549  147.795  103.694      1952.23
 340.123   87.803  257.445      1945.20
 201.454   28.597  340.038      1942.39
  13.668  147.405  221.332      1925.51
 182.853   83.723  315.698      1852.37
  14.661  148.654  204.134      1832.68
 183.615   93.762  324.924      1805.96
 168.190  109.987  344.381      1798.92
 355.282   95.457  231.080      1796.11
 306.108   30.068   90.779      1786.26
 357.219  150.509  244.333      1770.79
   4.961   73.498  242.205      1748.29
 155.213  148.175  289.531      1727.19
   1.202   93.285  262.404      1725.79
 170.417  132.962  315.203      1706.09
 343.395   27.242   23.444      1697.65
 354.765   67.577   61.110      1675.15
  19.643  143.351  203.459      1668.12
  16.175  145.492  239.833      1654.05
 357.675   66.032   42.501      1642.80
 358.444   69.902   45.517      1637.18
 156.888  130.619  109.001      1637.18
 322.763   20.924   87.550      1630.14
 194.394  133.329  154.907      1616.08
   4.391  118.241  233.849      1593.57
   7.900   36.761   68.284      1587.95
 174.878  147.037  103.581      1585.13
  13.535   42.138   35.227      1582.32
 190.084  103.740  317.666      1571.07
 347.338  178.664  166.337      1559.82
  48.633   34.061   28.651      1554.19
 358.522   90.283   27.352      1551.38
 332.064   41.865   72.822      1540.13
 178.480  105.065  305.411      1530.28
   8.555  140.125  252.166      1521.84
 160.586  135.557  103.460      1516.22
 215.169   44.157  117.459      1495.12
 191.368   36.507  341.271      1478.24
 204.913   56.355  292.596      1469.80
  16.192  144.021  247.750      1468.39
   1.386  158.394  243.153      1468.39
  13.204  139.960  240.706      1465.58
 328.802  152.208  180.321      1450.11
 194.716  145.099  338.928      1448.70
  34.433  143.391  248.934      1444.48
  47.334  162.389  276.214      1434.64
 355.512   31.421   70.577      1414.95
 187.092  144.424  348.017      1407.91
 343.618   39.228   32.915      1407.91
 155.670   35.873  332.021      1400.88
 177.173   92.063  327.722      1392.44
  48.149   33.985   29.717      1367.13
 162.472  130.148   78.767      1361.50
 355.844   46.511   73.918      1360.09
  17.933   25.421   76.021      1358.69
  21.993   21.343   21.924      1357.28
   5.011   98.173  257.582      1357.28
 158.110   41.194  154.424      1347.43
  34.946   40.027  230.193      1346.03
 215.127   30.797  295.434      1341.81
 322.971  161.840  211.789      1340.40
 349.908   87.583   39.426      1334.78
 218.888   45.748    7.781      1331.96
  37.670   22.857   33.230      1331.96
 339.520   28.624   81.512      1326.34
 312.675  143.417  158.841      1324.93
  42.819   26.086  316.687      1319.30
 190.124  136.902  357.597      1319.30
   1.113   71.826  213.141      1319.30
 158.044  148.137   95.365      1317.90
  11.198   67.897  207.242      1315.08
 197.405  144.209   58.194      1310.87
 171.114  156.918   33.105      1302.43
  16.500   38.742   40.609      1289.77
 356.800   51.398   51.679      1286.95
 185.378  140.543  149.070      1281.33
 145.986  141.856   76.283      1271.48
 357.859   62.212   20.579      1267.26
 158.766  143.392    8.610      1267.26
  16.882  144.886  190.898      1265.86
 350.757  139.553  205.702      1264.45
 172.423  125.844  105.524      1251.79
 169.217  139.526  115.100      1248.98
  20.196  128.632  242.484      1244.76
 182.597  141.482   89.562      1237.73
 179.307  135.340  355.443      1229.29
 353.140   37.378   68.819      1226.47
   8.457  138.684  199.496      1225.07
 353.498   40.924   77.460      1223.66
 340.404   22.511   52.156      1219.44
  30.408   41.112   46.877      1215.22
 116.308   17.546  344.528      1215.22
 195.937  118.106  323.445      1209.60
 137.899  152.187  267.657      1195.53
 138.209   33.103  312.329      1194.13
 353.402  128.623  239.406      1187.09
 354.949  128.642  219.882      1184.28
 336.557   16.854   63.371      1181.47
 212.313  151.579  353.190      1175.84
 179.026  148.291   51.087      1165.99
 199.780   25.687  354.997      1161.78
 238.811   45.694  281.095      1153.34
 181.778  140.538  346.103      1146.30
  40.647  145.601  261.564      1142.08
  16.721   53.319   21.228      1137.86
 347.195   54.472   80.482      1135.05
 341.513   34.917   25.678      1132.24
 186.414  149.023  118.196      1132.24
  16.489   46.245   61.285      1130.83
 167.266  138.084  330.566      1128.02
  13.886   76.383   34.410      1126.61
 345.375  147.639  223.664      1123.80
 201.374  144.967  354.103      1119.58
 359.013  148.638  190.838      1118.17
 182.368  129.891  133.099      1116.77
 168.882  140.504   98.086      1112.55
 325.083   43.503   37.691      1105.52
 198.414   29.100    0.522      1104.11
 190.592   88.596  148.329      1099.89
 330.694   20.704   66.502      1088.64
   2.402   26.850   38.429      1085.82
 355.392   48.164   47.409      1085.82
  25.348   39.750   38.657      1081.60
 351.312   87.548   30.332      1080.20
 344.206  144.876  211.979      1075.98
 177.452   78.662  121.369      1064.73
 194.188   90.983  324.078      1063.32
  60.572  137.983  261.907      1061.91
   2.606  139.201  237.958      1059.10
 356.813  139.324  252.177      1056.29
  19.677   46.735   28.041      1053.47
 347.997  155.899  222.153      1052.07
  45.767   29.753    1.418      1052.07
  10.007   66.578   74.599      1042.22
 194.500   50.425  293.702      1039.41
 219.793   35.167  299.139      1036.60
 348.564   34.725   35.110      1036.60
 357.185   85.976  265.977      1036.60
 355.209   25.527   62.765      1023.94
 185.457   83.529  343.973      1022.53
 340.291   52.759   66.439      1019.72
 327.292  136.413  234.658      1016.91
 103.683  157.264   10.231      1016.91
 148.773  126.626  111.463      1014.09
   3.843   42.190   62.802      1011.28
 171.986   73.806  151.208       995.81
  97.367  155.507  291.212       995.81
   4.554   39.144   73.357       995.81
 191.970  140.436   72.432       994.40
  68.045   29.634   25.213       991.59
 189.010  113.311  139.749       988.77
 221.231   39.722  319.584       987.37
 193.788  106.172  341.283       983.15
 353.143  137.089  214.496       971.90
 349.126   83.755   79.951       969.08
   0.942   41.268   32.774       966.27
 348.242   36.772   55.974       957.83
 359.190   95.285  201.912       957.83
   6.059   51.632   35.546       957.83
 350.179  151.328  208.422       953.61
 354.087  145.442  246.730       950.80
 185.893  149.997   78.422       950.80
 174.284  143.145   96.199       942.36
  12.127   43.193   54.802       942.36
 113.211  141.568  111.708       942.36
 350.063  122.166  237.356       940.95
   0.946  103.561  207.381       940.95
 174.846  150.393  316.107       939.55
  14.025  149.681  215.467       938.14
 175.881  155.692   42.529       936.73
 294.430  147.486  208.136       935.33
 187.882  158.204   10.918       933.92
 177.846   52.150  290.881       931.11
   6.619  127.699  258.967       924.08
 342.194   25.282   65.724       924.08
  26.492   39.917   17.449       924.08
  16.115  139.718  135.854       922.67
 171.801   86.550  119.872       921.26
  12.093   44.013   32.122       919.86
 359.810  130.667  167.424       915.64
  57.963  150.108  268.340       914.23
 159.919   25.634   48.131       912.82
 352.424  133.779  230.480       911.42
 169.464  145.827  329.410       911.42
 186.141   74.871  169.120       908.60
   7.463  151.922  260.612       908.60
 175.115   78.965  343.681       908.60
 329.707  153.217  174.807       904.38
 187.951  153.615  116.063       904.38
  20.824   49.371   58.800       902.98
 195.307  132.255  324.500       897.35
   4.680   55.313   52.827       895.95
   0.149  171.106  108.348       893.13
 339.961  136.368  236.175       891.73
 154.130  143.286   87.659       890.32
  39.004  149.932  282.145       887.51
 179.907   31.941  122.398       887.51
 349.208   38.536   33.241       881.88
 230.460   23.624  188.362       880.47
 209.476  153.412   35.075       879.07
 347.457   95.048  254.500       874.85
 358.907  102.990  231.573       870.63
  25.789   34.952   29.618       870.63
   2.354   99.190  193.658       867.82
 325.210  133.206  214.386       867.82
 226.966  157.943   40.298       865.00
 189.368   92.495  333.899       863.60
 351.787   42.607   65.123       863.60
  24.841  137.097  259.885       862.19
 231.728  170.702  108.894       862.19
 345.180  138.993  208.375       860.78
 336.175   26.696   34.676       859.38
   5.443  146.104  240.280       855.16
 143.054  174.155  243.954       855.16
 341.749   38.522   71.305       853.75
  65.737  154.605  289.212       853.75
   6.985  140.428  232.015       852.34
 172.585   31.371  155.905       850.94
 330.335  147.547  227.339       850.94
 193.238   40.676  225.425       850.94
  10.721  143.682  197.596       849.53
 287.905  158.460   49.225       849.53
 358.039   29.605   63.395       849.53
  26.878   26.146   60.573       848.12
 332.174  142.295  213.502       846.72
  11.116   77.097  240.352       841.09
  14.217  149.869  199.433       839.69
 296.241  157.659  188.100       839.69
 178.029   88.669  303.287       838.28
 316.440  151.696  146.470       836.87
 186.857   44.868  342.467       836.87
  32.214  155.737  289.432       829.84
  82.694   33.013  175.092       828.43
 341.321   48.375   78.266       827.03
  28.242  160.301  206.382       827.03
 157.809  136.349  333.420       827.03
  10.015   84.726  261.307       825.62
 182.867   91.675  163.777       822.81
 158.520   43.905  139.024       818.59
 183.649   28.381    0.183       818.59
 351.798   41.984   37.358       817.18
 355.072   36.553   39.725       814.37
 340.835  130.707  224.596       814.37
 310.393   20.201  120.697       814.37
 182.575   30.906   13.848       812.96
   6.677   40.405   45.191       811.55
   7.136  107.396   86.046       804.52
  30.357   36.740   41.015       804.52
 212.375  139.147  328.297       803.12
 186.669  162.114  116.853       801.71
 327.834   26.589   67.596       797.49
   2.532  130.260  221.706       797.49
 292.578   33.663  284.872       797.49
 356.992   40.979   33.352       796.08
 169.253  100.662  102.704       794.68
  20.229  144.988  279.731       793.27
  14.621   46.781   38.928       790.46
 172.136   61.083  331.955       789.05
 277.145   23.745  133.851       789.05
 358.744   94.177  227.672       787.64
 165.786  148.458   48.922       787.64
 183.222  138.548    7.356       783.42
 166.213  112.368  155.084       783.42
 328.662   53.294   85.408       780.61
 164.950  134.833  349.254       779.21
 350.360  139.203  262.339       779.21
 309.269   29.339  111.996       769.36
 197.973   89.207  328.464       767.95
   7.950  151.413  248.389       767.95
   6.877  146.302  232.208       767.95
 339.836   40.168   59.213       766.55
  23.176  149.518  233.292       763.73
 346.730   39.015   79.923       762.33
  15.334  133.745  252.081       760.92
 214.663  143.291  336.198       760.92
 348.532   31.990   48.786       760.92
  11.606   32.631   42.735       760.92
 152.075  136.238  340.651       758.11
 192.332   46.961  285.905       758.11
  77.814  155.494  290.205       756.70
 358.410   73.395   70.415       752.48
 220.790  137.686  353.367       752.48
 155.589  149.261   63.427       752.48
 169.367  152.747  268.094       751.08
 171.712   74.422  160.388       749.67
  17.155  149.390  255.083       749.67
 329.707  136.054  173.715       746.86
 158.419   36.314   56.344       746.86
  24.517   92.996  217.530       742.64
  16.789   29.471   14.646       742.64
 184.875  145.627  119.693       741.23
 358.040  127.105  246.038       739.82
 330.755   41.859   28.716       737.01
   2.436  129.951  249.547       734.20
 211.732  162.004  110.478       732.79
 175.525   30.728   25.990       732.79
 283.868   29.351  119.103       727.16
 322.077  144.399  167.247       727.16
  88.423   30.488  193.249       725.76
 177.412   49.612  354.600       725.76
 358.963   18.320   54.584       724.35
 184.590   86.235  312.492       722.94
 203.045   14.710  190.715       720.13
 347.862   32.233   73.460       720.13
 349.180  104.272  258.532       717.32
  21.184   80.562  216.820       714.51
 284.720   41.589  211.065       711.69
  83.654  171.526  356.544       710.29
 295.200  155.912  171.104       710.29
 358.610  136.712  200.740       708.88
 198.407   30.590  141.196       706.07
 181.608  163.960   83.081       706.07
 183.461   28.567  248.706       704.89
 231.010   13.455   69.532       704.66
 161.257   63.395  119.935       703.25
 342.974   35.404   32.073       701.85
 181.146  139.752  104.289       700.44
 327.831  161.962  191.358       700.44
 172.214  110.154  143.822       700.44
 166.672   64.784  351.609       699.03
 189.236  165.073   70.378       699.03
 190.691  147.279   14.376       696.22
 167.241  115.079  141.094       696.22
   8.177   45.315   35.062       694.81
 140.658   36.973   51.197       694.81
 184.348  153.168  129.301       694.81
 173.091   94.378  341.831       693.41
 350.701   48.579   72.287       693.41
 184.040   54.129  358.028       692.00
 344.125   31.588   52.302       692.00
 207.771  144.061  338.161       690.60
   0.005  114.395  220.549       690.60
   7.132   29.182   14.318       687.78
 209.606   26.981  108.068       684.97
 342.936  110.203  242.465       684.97
 131.633   31.633  183.257       684.97
 154.201   43.402   53.375       684.97
 182.413  144.689  339.132       683.56
  10.397  128.283  197.286       682.16
   1.279  112.721  213.039       679.34
  32.652  146.142  264.522       676.53
 190.872   35.333  356.836       676.53
 221.056  147.556  343.341       673.72
 182.814   89.508  337.269       673.72
 337.422  136.664  169.895       672.31
 340.977   24.368   32.282       670.90
   4.219   23.861   65.344       670.90
   9.909  157.680  293.398       669.50
  20.214   51.409    1.545       669.50
  86.323  158.743    2.541       669.50
 357.250   83.036   27.097       668.09
 111.600   22.521  269.778       666.68
   3.060   96.916  230.174       666.68
  28.796   48.164  348.349       665.28
 188.062   21.803  225.304       662.47
  17.199  123.485  235.868       662.47
 358.554  104.438  247.912       661.06
 181.737  114.612  103.122       661.06
 321.186  140.550  227.969       658.25
   0.961  135.547  231.514       658.25
 346.786  149.768  231.739       658.25
 357.652   98.206  224.209       656.84
 329.174  132.499  177.057       655.43
  21.925  153.134  286.462       655.43
 200.470  130.315  114.525       654.03
 355.693  146.912  247.114       654.03
 193.078   27.864  351.546       652.62
 336.817  132.313  214.325       652.62
   0.297  136.861  164.399       651.21
   4.341   28.597   51.260       651.21
 336.271  146.331  228.318       651.21
 153.373  138.502  323.805       649.81
 148.405   31.665  160.940       649.81
   9.161  153.538  259.325       646.99
 167.146  102.878  331.613       645.59
  35.403   27.617  325.258       645.59
 138.879   29.908  165.102       645.59
 151.023  151.857   98.342       644.18
 152.220   11.414  219.783       644.18
 172.744  143.998  102.452       644.18
 187.258   48.444  347.600       644.18
 294.365   32.551   81.170       644.18
 334.993  153.536  213.930       642.77
  15.137  138.642  206.344       635.74
 157.179   47.499  145.897       635.74
 321.050   35.078   36.974       635.74
 348.108  123.414  172.643       635.74
   2.526   90.078   89.222       634.34
 176.603  147.509   24.821       632.93
 268.483   26.843  326.832       632.93
  15.487   16.389   70.027       632.93
  19.652   87.536  222.010       630.12
 167.553   50.908   18.394       630.12
 338.678   57.033  257.706       630.12
 191.895   39.006  338.242       628.71
 107.555   36.224  345.620       628.71
 352.507   41.224   67.354       625.90
 183.389   33.586  293.445       624.49
  21.297  142.993  272.422       624.49
   0.337  122.030  195.183       623.08
 343.196  142.886  268.405       621.68
 174.780  142.698  345.616       618.86
 167.059   64.888  299.808       616.05
  12.161   42.046   35.401       616.05
 207.598  131.249  147.902       616.05
 355.517  138.781  238.457       614.64
 110.921   35.344  181.294       614.64
  18.790   39.780   85.519       613.24
  21.444   49.452  231.195       611.83
 123.340    9.234  166.814       610.42
 348.095  139.815  214.946       610.42
  11.936   36.494   42.885       610.42
 186.952  109.824  151.468       609.02
 167.891   43.752  282.633       607.61
 357.759   73.102   75.430       606.20
 357.543   97.230  203.309       606.20
 348.905  150.486  215.811       606.20
 198.388  161.727  104.592       604.80
   6.546  123.528  254.242       604.80
  87.750  118.599  127.226       604.80
 195.201  143.071  326.167       604.80
  61.520   25.676    2.309       604.80
  51.033   49.961   16.719       604.80
   0.141   83.857  221.599       603.39
  19.002  139.930  190.370       603.39
 194.231   36.890   95.542       603.39
   7.602   84.730   20.095       603.39
   1.013   42.257   62.969       603.39
 176.140   65.686  156.008       603.39
   4.661  149.708  259.505       601.99
 161.670   37.225  324.117       601.99
 172.616  107.700  132.002       601.99
 194.718  132.553  314.077       599.17
 358.743   35.726   70.206       599.17
 142.378   27.610  148.228       594.95
 172.444   92.535  322.397       593.78
  65.098  162.928  332.779       593.55
   5.178   78.295   37.525       593.55
   3.370  128.669  216.515       593.55
  54.807  147.696  310.750       593.55
 176.798  105.873  100.914       592.14
 182.027  135.692  107.256       592.14
  10.714   33.326   48.618       590.73
 223.167  138.898   70.797       589.33
 318.788  146.858  183.675       589.33
 351.918  137.168  219.893       587.92
 202.805   37.284  351.668       587.92
 194.931  157.996  115.860       586.51
 190.405  145.528  103.095       586.51
 172.478   79.360  354.276       585.11
  13.243  135.907  264.370       583.70
 197.702  136.505  352.315       582.29
 352.076  127.400  227.534       578.07
  17.050   39.297    4.745       576.67
 194.238   47.887  133.993       576.67
 205.764  138.667  114.918       576.67
 353.593  112.477  254.004       575.26
   2.016   57.502   49.547       575.26
 250.201   18.590   33.175       575.26
 183.876   63.396  290.561       573.86
  13.625   42.896   33.974       572.45
 342.417   84.496   38.241       571.04
 348.791   39.298   71.557       568.23
 194.428  138.741  322.823       568.23
 353.919   89.670   74.830       568.23
  15.236  119.762  254.501       566.82
 344.807   88.043  216.751       566.82
  20.330   43.595   33.777       566.82
 199.388  141.485   11.233       565.42
 348.475  139.228  245.915       565.42
   9.382   19.939   61.347       565.42
 153.131   51.020  158.571       564.01
 265.911   33.000   87.100       562.60
 160.695  135.602  345.160       562.60
