TEXTURE AT STRAIN = 0
1.0   1.0   1.0
DISCRETE TEXTURE FROM ODF FILE RD_625C_5
B 4163
  41.627  152.566   42.118      4122.00
 345.749  139.572  334.454      3402.00
 176.642   74.997  274.929      3343.00
  29.340   37.303  217.634      2777.00
  37.817  151.363  337.202      2774.00
 165.896  138.570   58.846      2597.00
 218.132   34.283   79.603      2581.00
 176.188   71.772  262.965      2562.50
 173.105   44.338  305.040      2532.00
 173.656  145.528  153.528      2514.00
 165.643   53.304  134.799      2459.00
 293.064   22.085  270.757      2334.00
  19.593  145.399   27.489      2263.00
 196.154  148.013  198.847      2236.00
 209.217   48.447  279.213      2229.00
  30.516  137.372  205.856      2227.00
 175.835  168.689  156.441      2208.00
 221.979   21.158  261.087      2192.00
  18.531  139.498  220.887      2187.00
 160.057   41.559  306.914      2112.00
 182.050  103.127  164.794      2109.00
  36.144   40.073  225.255      2051.00
  46.673   26.729   58.487      2034.00
 161.211  159.209  131.422      1993.00
 192.023  129.929   21.118      1989.00
  36.247  141.920  228.920      1973.00
 194.875  152.660  194.164      1950.00
 184.715  141.132  184.047      1948.00
 131.954  156.856   96.147      1908.00
 190.247   32.268   94.885      1888.00
 177.511  141.440  172.296      1885.00
 174.174  139.878  117.040      1855.00
 206.456   21.574  277.786      1853.00
 186.520   42.759   53.503      1838.00
   0.286   25.300  158.015      1828.00
 341.193  127.809  175.738      1826.46
 177.132   48.442  102.684      1818.00
  13.571  121.870  148.577      1809.00
 350.260  125.409  181.485      1795.00
 156.638   29.879  298.307      1750.00
 326.030  151.661  353.050      1716.00
 178.693   50.167   18.109      1708.00
 170.130   45.178  104.854      1705.00
   3.436   43.873  137.507      1701.00
 188.219  147.899  192.309      1699.87
 176.353  144.464  185.396      1692.00
 152.621  154.521  151.815      1685.00
 201.114   38.554  289.774      1665.00
 214.460   22.951   76.866      1661.00
   5.199   37.410  194.958      1656.00
 182.808  127.174   25.688      1650.00
 231.736  159.571  236.796      1649.00
 358.794   97.922  175.106      1640.00
  18.342   23.128  209.841      1639.42
  54.335  141.169   32.386      1635.00
   7.363   37.442  123.555      1629.00
  76.366  128.046   17.946      1614.50
 162.814   47.202   73.321      1609.00
  13.827   51.269  135.108      1600.00
 167.157  159.666  158.740      1586.00
 206.544  123.915   71.535      1581.00
 320.418  140.563  118.358      1581.00
 339.440   83.916  138.072      1564.00
  15.881   31.751  160.824      1563.00
 165.760   86.649  162.357      1544.75
 309.080   15.308  296.624      1533.00
 218.331  139.881   60.499      1518.00
  34.963   21.621  136.279      1500.00
 149.345  134.815  141.740      1495.00
 175.131   19.414  317.015      1478.00
 349.036   35.761  148.120      1476.00
 315.164  145.354  335.205      1473.00
 332.552  137.273  326.698      1469.00
 196.587  136.823  149.105      1456.00
  30.954   33.019   46.134      1447.00
 331.930   48.977   60.741      1446.00
  19.130  140.970  207.968      1437.00
 164.488  151.563  176.863      1420.00
  26.719  159.832  227.417      1406.00
  24.788  158.107   23.100      1399.00
 177.854  135.937  154.958      1397.00
 151.462   37.818  310.080      1383.00
 167.728  152.260  141.489      1368.00
 351.697   99.747  190.960      1365.00
 170.343   30.453  307.400      1364.00
 183.490   41.040   95.901      1346.00
 207.922   25.962   94.256      1345.00
 191.429   28.990  301.413      1344.50
  41.830  144.738   28.683      1334.25
  20.439   47.611  214.769      1334.00
 351.121   93.896  169.710      1327.00
 183.233  141.288  155.995      1321.00
 188.295   85.575  269.132      1310.00
  18.056   31.470  256.897      1309.00
 339.491   68.846  152.671      1308.00
   7.348   38.284  157.416      1302.00
 334.587  150.700  336.188      1295.00
 357.145   84.469  139.648      1288.00
 354.752  147.507  177.888      1285.00
   2.620   43.540  171.767      1284.00
 209.041   41.605  280.539      1280.00
 176.444  147.395  166.935      1274.00
 328.794  155.621  141.524      1273.00
 198.250  146.599   45.559      1269.00
 175.105  111.372  307.556      1267.00
 184.340   37.954  298.356      1265.00
 353.228   85.855   17.461      1259.00
 196.953  141.740  193.108      1250.00
  77.550   31.308    3.260      1248.00
 199.889   27.175   76.125      1246.00
 180.482  157.805  184.522      1245.58
   2.256  122.900  173.198      1242.00
 206.524  148.962  204.598      1237.00
 151.156   24.985   83.722      1224.00
 352.553   45.098  195.137      1217.00
   6.903  148.450  344.127      1209.00
  40.837   23.746   42.336      1194.00
 164.525  153.899  123.019      1193.00
 136.967  162.198  123.952      1192.00
 166.851  153.750  171.628      1189.00
  23.828  138.014  197.851      1185.46
 208.718  142.901  212.336      1183.00
 355.705   26.894  249.987      1182.00
 177.485   34.534  122.910      1178.00
   3.681  126.735  201.075      1175.00
   5.961  146.127  193.981      1175.00
 162.306  105.966  205.786      1174.00
 191.988  147.256  194.935      1173.00
 274.729  156.470  266.716      1167.00
 186.356  133.992    9.961      1164.00
 352.065   39.249  171.714      1162.00
 192.365   18.625  101.129      1155.00
 350.270   78.172  162.632      1152.00
   4.371  126.039  171.058      1147.00
 228.617  136.653  213.509      1141.50
 156.287  136.740  267.226      1140.00
  51.475   45.473   19.398      1139.00
 167.572   77.882  178.170      1135.75
  16.324  128.249  178.073      1135.00
  11.921   46.364  174.044      1134.00
   4.794   99.767   37.262      1125.00
 353.520  161.678  196.794      1114.00
 213.050  149.472  195.567      1113.37
  61.093   40.905  181.765      1112.00
 200.884  128.854  137.569      1109.00
 147.610  157.354  146.136      1103.00
 340.157  157.432  126.288      1099.00
 200.077   34.486   52.188      1091.00
 134.302  151.238  128.134      1086.00
 359.515   84.448  188.600      1081.00
 150.426   35.946  152.413      1081.00
 184.110   88.122  256.107      1078.38
 341.490  170.471  328.688      1076.00
 192.988  142.415  201.695      1066.00
 101.930  153.110   97.981      1063.00
  15.667  146.775  219.812      1059.00
 356.093   76.490  102.030      1051.00
  24.252   41.005  149.803      1043.00
 341.874  130.301  158.583      1043.00
 327.536  152.930    3.050      1040.00
 337.570   53.962  187.633      1036.00
 154.582  147.744  117.580      1031.00
 315.423  149.778  320.195      1022.00
  28.625   39.807  147.889      1020.25
 196.615  124.242   77.894      1019.00
 191.577  138.511  186.860      1017.00
 346.436   84.713  156.585      1017.00
 191.951   33.248  290.909      1009.00
 188.633   93.849  260.195      1009.00
 256.562   26.162  231.784      1004.00
 358.277   81.294  160.782       999.00
  65.831   30.025   75.818       999.00
 218.523   47.482   94.812       997.83
 209.359   49.579  279.628       994.00
 153.573  102.407  256.527       993.00
 184.292   63.133  127.354       989.00
 182.327   37.167   76.161       985.00
 163.369  157.065  166.102       984.00
 177.749  127.717  147.123       979.00
  95.303   10.218  145.205       978.63
  22.838  124.429  209.700       978.00
  16.175   94.677  186.794       978.00
 184.373  105.623  203.270       977.00
 172.219   27.709   87.385       976.00
 153.866   49.243  134.169       973.54
 171.811   50.364  129.696       968.00
 293.366  142.694  298.044       961.00
 357.032   87.181  155.082       960.00
 344.325   22.662  253.113       959.00
 331.945   39.801   71.662       959.00
 337.346   37.411  205.772       956.00
 359.245  130.039  190.040       954.00
   9.316   74.170  211.496       954.00
 167.749  146.886  158.902       953.00
 153.712   29.809   91.038       950.25
 214.922   14.545  235.624       948.00
 353.181   78.462  195.407       948.00
 338.978   61.671   44.486       945.00
 344.766  140.068  344.507       943.00
   0.410  130.660   41.172       942.00
 171.362   34.486  133.309       941.00
 176.526   64.483  139.641       934.00
   5.866  136.921  182.296       933.00
 196.034  142.070  191.809       932.00
 174.945  119.155  156.411       931.00
 359.059   88.772  160.018       929.00
 165.752  140.004  174.540       925.00
 356.672   37.679  175.587       925.00
 194.807   40.739   92.049       925.00
 342.109   86.397  136.920       923.58
 333.223  133.124  164.671       921.00
  39.168  160.235  183.016       921.00
 169.347  128.198  277.350       919.00
 184.620   12.649  273.435       919.00
  10.162   44.698  166.709       918.00
  18.761  143.630   27.088       917.00
  16.089  150.503  358.476       914.00
 163.674  130.176  152.698       911.00
 122.309  158.237   90.985       909.00
 313.262  140.406  332.387       907.00
  24.134  118.536  206.575       904.00
 171.751  137.613   13.211       901.00
 341.367   43.061   67.939       901.00
 359.218   79.416  149.644       899.00
 346.141  147.965  209.581       897.00
 166.598  159.362  158.254       895.00
 191.642   32.213   92.905       894.00
 336.164  151.935  155.610       892.00
 355.221  160.909  190.280       887.63
 188.029   90.059   35.577       887.00
 177.759   43.000  111.057       884.00
 268.575  150.779   68.345       875.00
  13.997   44.761  157.263       875.00
 350.989   49.579  305.387       874.00
 183.816   42.608   99.383       871.00
 243.796   36.874   51.530       870.00
  42.309  150.860  251.775       870.00
 160.789  141.319  132.586       867.00
 206.518  133.498   47.653       862.00
 357.458   49.519  135.003       860.00
  52.663  153.322  229.146       860.00
  54.401   21.254   17.322       859.00
 155.555  164.334  152.986       858.00
 353.718   84.058  143.590       852.00
 199.182   33.259  288.283       847.00
 139.841  135.822  138.278       846.75
 181.284   19.432  101.106       846.00
 207.955  150.232   46.395       842.46
 119.278   29.210  335.757       838.00
  26.925  155.123  205.414       834.00
 349.995   41.636  173.624       832.00
 176.067  145.428  174.954       830.96
 192.212  151.051  320.728       830.00
   0.193   30.635  262.592       829.00
 194.867   14.753   43.536       829.00
 147.394  143.017  323.052       828.00
 334.732  134.672  339.774       827.54
 358.016   57.143   43.930       827.00
 250.962  165.078  238.382       826.00
 354.032  154.362  331.783       824.00
 180.989   40.749   37.398       824.00
 220.974   48.492   48.442       821.00
  38.392  149.050  212.917       819.25
 177.217   93.443  277.361       810.00
 185.147   42.278   89.383       809.00
 173.521  150.088  185.574       808.00
  17.508   31.043  114.074       801.62
 158.903   98.186   47.329       800.50
 161.008  167.978  156.419       798.00
 255.956  159.200  164.241       797.00
 191.313   26.807  295.997       793.13
 118.644  171.602   82.658       792.00
   5.164   96.178  162.016       790.00
 348.409   69.349  160.481       790.00
  16.148  126.138  173.241       788.00
   8.325  141.723  155.570       786.00
 167.214  143.955  151.837       782.00
 157.814  152.926  139.235       773.00
 186.732   17.449  107.163       771.17
 183.385  138.487  184.531       771.00
 197.029   68.126  105.346       769.00
   3.781  165.430  350.093       765.00
   8.529   73.087  183.615       765.00
 194.750  149.512   32.611       764.00
  58.863   39.372  167.452       764.00
 359.307   84.565  204.695       764.00
 182.724   86.136   98.400       764.00
 157.417  105.502  183.193       764.00
  85.014   15.762  185.260       763.00
  11.179  152.278  154.316       760.00
 348.463  139.761  163.130       759.00
 166.418   54.151  145.796       758.00
 183.356   40.037   92.144       756.25
 162.867   53.265  137.848       756.00
 186.204   95.671  208.830       755.00
 180.210   86.328  262.526       754.00
 191.590  146.154  197.183       748.00
  27.989   23.866  235.438       747.00
 157.657  149.040  141.262       746.00
 297.093   67.250   15.598       743.00
   0.136  160.387  188.686       742.00
 179.548  112.383   49.748       739.00
 207.610   32.900  286.182       739.00
 162.709   40.012  135.428       736.00
 315.795   44.826  145.776       729.00
 165.544  124.172  317.880       728.00
 166.733  126.844  164.930       726.46
 199.014  149.660  190.121       726.00
 354.741  138.919  167.842       725.00
   2.484  147.149  174.387       724.00
 357.043  151.291  193.240       720.17
 190.014   13.435   77.412       720.00
 202.827   10.804  263.900       720.00
 347.829   47.909  177.862       720.00
  44.690  145.559   22.119       719.00
 175.398   38.679   90.736       719.00
 176.331   89.323  224.653       714.00
 131.687   24.893  330.097       713.00
  21.889   40.459  102.868       712.00
 202.295  137.825   91.394       712.00
   2.386  140.172  167.062       711.00
  22.174  130.572  169.638       710.00
  18.108  135.248  180.599       707.00
 226.471   59.452  278.317       705.00
 343.724   68.733  171.375       704.00
 342.582   74.466  150.033       704.00
 243.200   27.064   43.772       701.00
  11.100   60.433  170.118       699.00
 169.260  117.835  160.922       698.00
 189.063   89.587   36.817       697.00
 120.772    7.792    5.068       696.00
 184.135   38.066   63.695       692.00
  27.340   27.574  246.710       690.00
 160.480  144.785  126.329       689.00
 188.883   56.086  101.467       689.00
  16.527  138.438  185.650       688.00
 147.793  157.770  161.402       687.00
 350.260   94.405  167.880       687.00
 354.115   64.216  169.804       686.00
 170.374  129.907  123.583       683.00
 201.054   38.140   85.389       682.00
 200.672   20.182   69.065       681.75
 196.014   36.276   87.222       681.46
 172.569  120.759  173.322       681.00
 151.622   93.009  213.093       680.00
 176.362  117.738   18.407       679.00
 159.859  128.013  286.073       677.00
 160.500   67.586  149.159       677.00
 153.976  155.545  122.473       674.00
 194.899  144.055   87.172       669.00
 357.958  115.565  157.892       668.00
 173.362   46.101  131.553       667.00
  17.705   35.174  206.366       667.00
 357.067   88.558  195.153       665.00
 314.732   35.058  106.483       665.00
  19.725  100.351  347.620       665.00
 178.011   90.260  145.205       664.00
 330.815   20.200  192.222       664.00
  27.941   21.293   89.411       663.00
  20.941   39.709  160.247       660.00
 348.739  148.031  160.977       653.00
 154.818   14.802  323.869       651.00
 182.318   66.327  278.813       650.00
 120.843  150.755  291.550       648.00
 149.125   44.226  316.252       648.00
 172.296  143.335  118.963       647.00
  97.845  162.039   96.238       645.00
 353.666   90.569  164.172       643.00
 159.145   99.599  185.281       642.50
  25.490  152.762  216.746       642.00
 179.157   52.711  131.446       639.00
 151.105   37.048  111.470       638.00
  10.791   49.202   81.367       638.00
 178.019  109.072   29.594       637.00
 351.726   46.910  154.039       632.75
 186.359   67.805   98.220       632.00
 353.453   89.026  199.118       631.00
 179.020   30.978  101.966       629.00
 344.895   80.083  168.610       628.00
 358.627  128.046  168.575       626.54
   5.750   45.206  182.978       625.00
 347.806   30.738  172.481       625.00
 174.471  128.052  333.784       625.00
 124.145  140.432  101.250       624.00
 128.215  130.726   59.453       624.00
 207.864  152.470  223.449       623.00
  11.917  144.732  207.372       622.00
 175.701   41.694   85.480       622.00
 188.825  131.628   15.560       620.25
 169.558   30.552  107.384       620.00
  12.712   81.894  178.176       619.00
 182.280  135.478   14.640       618.00
 192.872   81.892  263.788       618.00
 121.545  168.533  113.592       616.00
 181.796  155.180  196.221       613.00
 190.754   62.843  275.746       611.00
  12.830   76.196  201.707       610.00
 156.107  149.848  144.782       610.00
  21.640  145.115   21.526       610.00
 350.462   45.200  198.530       609.00
 180.476   91.388  173.085       608.00
 359.273  120.761   10.452       607.00
   4.963   84.970  177.075       607.00
   5.410  119.427   48.603       604.00
 187.285   84.604   23.924       603.75
   1.466   89.256  199.626       601.00
 356.732   98.636  179.679       600.00
 241.154  145.115   46.949       600.00
   8.767  109.556  177.985       600.00
 172.956   39.690  132.439       597.00
 201.956  155.138  118.815       592.00
 355.273  146.428  168.943       592.00
 304.405   24.815  247.341       590.00
 194.055  136.555  196.882       589.00
  20.171   33.751   76.169       588.00
  77.813  146.351    1.334       588.00
 354.564   95.040  142.577       587.00
 152.938  149.683  116.689       585.00
  13.034   97.532  201.187       583.00
 357.725   97.429  161.440       580.00
   1.947   78.937  156.939       579.00
   7.047  131.967  334.779       578.00
  86.252  147.705   26.889       578.00
 202.363   20.601   73.124       578.00
   6.170   69.177  172.322       575.00
 131.752  145.216  313.535       573.00
 354.400   81.709  153.412       573.00
 350.178  141.495  340.381       572.00
  34.351  159.275   47.566       572.00
 262.629  152.460  246.686       571.37
 155.075  136.748  150.653       571.00
 148.744   34.585  305.907       569.46
 287.705  166.737  112.097       568.00
 102.368   30.049  353.414       568.00
 196.363   36.758  101.839       566.00
  11.088  113.652  201.329       566.00
 174.687   32.767  111.166       566.00
   0.504   63.119  161.082       566.00
  11.145  103.335  196.758       565.00
 204.101  123.776   24.893       565.00
 187.647  133.239   27.567       564.00
 352.555   67.154  159.690       564.00
 169.711   67.736  294.744       563.00
 352.825   49.572  207.973       562.00
  16.370  145.714  195.767       561.54
 358.194   77.296    9.418       561.00
 341.779  119.343  168.595       561.00
 352.521   39.940  182.310       560.00
 163.155  146.737  140.529       560.00
 177.441  153.671  133.540       558.00
 161.589   66.548  102.706       557.00
 188.821   82.406  129.323       553.00
 171.957  140.754  165.257       553.00
 189.540  147.276   31.821       552.00
 107.960  152.118   64.621       552.00
 177.154   36.044  298.108       550.00
 173.188  123.982  153.411       550.00
 199.224  126.500   34.088       548.50
 352.097  140.936  178.395       545.96
 345.731  142.052  339.672       545.00
 194.322  139.683   34.187       544.00
 171.797  143.380    5.687       542.79
 358.385  106.009  195.220       541.00
 185.114  116.615  193.392       541.00
 200.690   52.539  102.478       540.00
 215.063   37.085   64.147       540.00
 166.330   44.927  106.457       540.00
 359.784   67.730  190.144       539.00
 195.610   64.366  116.890       539.00
 187.471  139.991   20.160       537.00
  72.224  153.112   48.852       536.00
 352.878  104.677  174.692       536.00
 158.216   31.052  131.617       536.00
 185.788   91.669   17.461       535.00
 184.471   56.433   59.879       534.00
 179.046   80.476   43.777       534.00
 343.228   43.071  193.217       532.00
 141.784  141.271   88.280       531.00
  13.363  125.304  199.751       531.00
 336.536  135.942    1.553       530.00
 347.342   75.670  154.262       528.00
 336.851  132.543  152.466       528.00
 230.278  161.625  223.161       528.00
  14.639  123.950  206.182       527.75
 185.288   23.065  288.476       527.00
 196.299  126.554   16.129       527.00
 177.270  148.055  284.266       527.00
 243.496   32.796   36.848       526.00
 358.885  141.053   15.171       526.00
 357.328  143.331  199.954       526.00
 353.387  112.424  190.285       523.00
 178.330   85.915  339.071       523.00
 190.578  159.068  181.221       523.00
 349.849   79.153   22.641       523.00
 183.442  116.767  152.860       522.00
 245.713   30.570  250.003       522.00
 181.755  148.613  169.149       521.00
