TEXTURE AT STRAIN = 0
1.0   1.0   1.0
DISCRETE TEXTURE FROM ODF FILE TD_625C_20
B 4028
 204.796  143.518  201.407      5201.20
 353.647   46.363   94.037      3908.68
 348.602  133.426  269.173      2576.28
 351.645  146.636  121.608      1944.01
 173.324   91.310  268.187      1889.36
 207.633   46.114  156.200      1618.95
 173.329   60.786   64.720      1610.51
   9.739   40.187   41.341      1503.63
 345.679  137.820  291.249      1482.01
 189.616   50.143  245.350      1464.56
  13.585  133.645  256.021      1458.00
   5.714   56.651  236.834      1448.13
 187.933  122.892  135.611      1418.65
 183.073  141.518  143.073      1387.69
  35.754   27.410  340.679      1380.40
 167.528   33.895   33.626      1344.32
 133.699  152.628   65.585      1325.29
 203.745  140.146  187.664      1304.65
  14.252   50.583  189.146      1174.62
  32.867  117.096  132.787      1167.20
 192.752   44.564  207.320      1148.93
 190.540  150.303  197.780      1139.67
   1.623  148.965  288.975      1082.17
 171.172   53.437  287.635       951.78
 184.538   72.693  179.311       948.96
 165.086   54.153  140.844       945.84
 190.158   37.760   72.549       939.25
 197.796   29.213  247.919       918.51
 188.200   37.007  217.991       898.42
  26.886   39.589   27.268       894.62
   5.797   34.185  242.878       883.52
   1.917   41.763  240.090       882.66
 335.376   42.751  122.039       844.96
 193.478   49.267   90.779       810.75
 197.411   72.756  308.422       791.74
 151.003   34.329  245.346       778.34
 222.228  119.499  336.264       773.75
 154.801   23.414  103.779       740.07
 178.687  131.796  137.100       736.78
 339.042  141.173  254.659       720.84
 183.767  142.513  289.474       718.14
 152.935   31.134   12.859       715.55
 354.517  139.457  272.055       709.58
  39.643  152.095  242.102       699.77
 182.094   50.966  223.390       699.50
 347.993   94.210  144.892       696.71
   7.210  117.387  226.174       690.69
  35.232  142.758  317.895       688.04
 351.331   31.453   56.326       685.69
   7.192   31.333  221.301       679.38
 327.645   24.956  110.870       675.75
  19.083  151.538   35.794       675.50
 178.812   48.890  338.979       675.50
 341.850  137.476  262.429       674.34
 296.312  123.811   95.273       662.34
 162.843  155.615  139.046       653.23
  25.915  139.120  245.657       642.19
 195.560   29.590  228.666       634.72
 127.615  124.600  342.441       632.48
 150.623   91.363  317.103       627.16
   9.210  130.241  358.702       622.38
 178.538   29.442  268.735       617.81
 315.841   41.241  264.067       617.25
 184.133   36.712  241.139       603.15
 354.333   43.486  267.969       602.28
 273.107    7.552  105.154       586.94
 179.514   47.708  262.794       575.24
 227.762   43.747  249.079       574.47
 201.480   47.486  268.070       572.94
 190.009  129.827  173.404       570.12
 189.118   52.875  217.719       569.10
 339.797  139.830  314.677       564.80
 161.607   76.767  286.891       557.79
 125.748  149.101   96.124       546.26
 162.115  102.435  274.158       515.31
 348.902  121.488  276.511       514.57
   3.162  125.119  207.284       513.73
 157.087  137.019  160.528       513.69
  32.336   45.809  165.885       511.94
   4.297   77.748  206.078       508.25
 171.332   52.398  238.197       506.37
   9.748   52.558  163.221       502.03
  17.732  102.475  252.827       500.25
 211.364   33.179  182.180       500.16
 356.583  138.167  277.601       490.56
 168.031  125.611   64.924       490.11
 147.803  143.922  144.971       489.59
 327.270   31.841  269.320       486.47
 237.978  166.007  329.638       477.80
  65.960   53.280  133.603       475.65
 191.536  128.215  182.332       474.22
 114.114  154.209   77.130       466.90
 353.965  114.204  287.314       463.95
 358.476   51.497  200.397       463.92
 188.003   39.445   20.845       456.00
 336.896   44.491   66.206       455.57
   5.246   39.107   78.331       455.23
  20.563   66.471  101.167       453.02
 166.480  125.133  121.726       452.43
 190.458   68.194  253.589       451.18
   1.843   42.580  246.888       447.99
 342.111  122.807  122.599       447.25
 161.576  105.178  299.680       445.88
  15.512  136.784  332.705       445.64
 352.947  100.036  152.144       445.23
 319.974  132.853  101.762       444.35
 165.259   81.752   95.806       443.31
 183.888  147.334  148.129       443.19
 208.408  156.539  170.552       441.25
 348.233  136.285  313.460       436.98
  92.540  153.938   46.859       434.26
   1.307  135.462  255.226       432.97
 171.814   27.918  310.421       432.88
   5.686  138.932  203.312       426.43
 352.582  139.063  285.219       424.20
 119.980   29.403  284.066       423.70
 171.515  117.750  321.966       417.50
 159.824  177.970  114.390       416.14
   0.086   41.375  116.311       411.19
 180.093  133.504  157.253       410.25
 198.741   80.307  219.762       407.62
 342.813  125.426  120.592       405.05
 173.700   45.080  272.777       397.89
   4.769  127.287  286.267       397.58
 115.909  163.573   78.448       395.25
 178.538  130.963  243.718       395.01
 341.399  144.023  303.074       392.78
 163.696  131.322  144.513       389.47
 161.564  123.042  137.789       388.40
 166.414   45.708  234.913       387.23
 196.956   50.664  212.828       384.37
   2.968  149.004  270.269       378.01
 211.944   34.680  196.195       376.58
 337.936   33.231  243.044       373.85
 186.186   22.226  334.940       369.14
 342.316   77.496   78.187       367.54
 139.612  146.080  134.843       365.57
  21.135   92.012  126.764       365.41
 334.673  148.241  286.923       365.07
 334.740  129.282  118.185       362.94
 353.122   29.339  236.330       359.32
 260.162  108.397   57.617       358.66
 352.193  121.804  238.732       358.15
 323.149  148.771  177.071       357.95
 182.813  149.252  165.776       357.57
 189.739  131.858  176.766       356.58
   5.771   56.131  113.619       355.76
 343.454   20.355   93.765       355.31
 115.247  162.609   15.370       354.94
   9.293  125.709  178.348       354.75
 291.479  156.376  254.816       354.72
 173.877  147.173  110.696       354.06
 190.653  129.581  166.702       353.87
 143.449  127.755  103.814       353.81
  21.538   87.495  145.918       351.37
 236.269  155.177  201.669       347.68
 101.837   83.842  354.931       347.01
 353.568   49.070   91.874       346.69
 169.959  139.790  143.952       346.56
 168.007  119.897  327.427       342.47
  99.587   99.914    0.489       338.70
  31.972  129.835  318.267       337.26
  46.812   22.518   36.913       336.56
 178.810   60.049  265.300       336.07
 189.467   20.388  188.508       334.00
   1.019   49.085  223.300       333.25
   5.214  129.765  306.977       331.61
 200.978  117.787  151.405       329.31
 116.603   32.468  115.326       328.85
 157.605  160.252  138.633       328.41
 290.913  157.566  266.472       325.70
 197.462  109.959  208.511       325.58
 183.405   99.833  217.907       323.20
  43.459  140.450   20.608       322.98
  31.647  140.863  336.232       320.67
 133.543   28.922  266.535       320.38
 351.481   31.729   52.398       320.28
   6.527   39.375   40.620       317.22
 277.947   47.780   60.608       314.45
 189.046  131.474  141.715       314.13
 205.926  122.247  329.350       310.94
 171.140  138.370  161.373       310.18
 198.861  133.832  242.871       309.96
  23.428  103.737  338.275       308.55
 161.366  119.214  138.327       308.28
   5.157  110.433  142.516       307.54
 193.731   30.040  263.434       306.25
 336.428    5.834   49.794       304.82
 167.306   52.001  238.418       304.50
  65.901   63.230  121.079       304.45
 143.042   27.962  246.307       302.13
 191.514  125.911  168.013       301.50
 174.078  140.513  152.905       297.94
 351.670   32.333  229.211       297.00
 359.331   39.235  210.478       292.38
  28.964   22.535  154.559       291.33
 266.858  134.206   49.127       291.26
   8.027  118.138  201.182       287.58
 195.685   65.317  298.622       286.50
 175.601  145.086  244.310       284.25
  75.632   31.313  356.474       284.03
 293.172   31.451   95.035       284.00
 326.143    9.989  111.532       283.84
  17.536  137.191  335.387       281.81
 292.736  131.933  224.628       280.71
 299.820   34.812  297.738       280.69
 354.203   53.726   58.844       280.31
 213.786  150.884  194.002       279.95
 211.952   34.803  263.584       276.50
  82.737  148.673   32.912       276.34
  41.830  139.594  297.998       275.75
 156.169   74.377  269.307       273.48
  43.101   69.356  146.696       271.10
   3.481  120.965  340.733       268.53
 165.985   83.105  300.167       268.15
 194.760  126.894  201.368       267.57
 341.909  160.629  180.558       266.68
  10.482   60.462  229.130       262.06
 170.680   52.566  231.230       261.00
 337.267   46.272  239.749       259.37
 168.972  120.211  333.894       258.19
  10.697   32.605   47.499       257.60
 318.679  142.587  301.960       257.45
 170.387   40.525  109.237       255.31
   3.303   58.244  245.903       254.83
 175.129   27.105  290.273       252.91
 185.797   67.129  244.425       252.70
 312.660    9.744  255.567       252.08
 353.469  131.468  142.815       251.81
 174.232   41.784   64.392       251.25
  24.778   48.485  212.565       251.12
 292.289  156.687  254.342       250.75
 163.999  127.683   90.528       250.40
 177.416   32.342  217.221       249.82
 271.763   25.810  310.217       249.81
 110.642   22.175  107.814       248.87
  47.555  160.988  309.642       248.00
 230.487   96.226  359.349       247.33
 343.353  122.304  242.668       246.98
 314.449   35.897  306.450       246.25
 196.039  135.090  166.992       243.91
 192.039   77.161   31.807       243.67
   8.173   68.315  177.069       242.31
 171.464   76.337  282.578       241.84
 194.868  120.107  178.652       241.56
 169.463  135.330  153.205       241.44
 356.166   49.102   49.361       240.00
 186.620   71.373  270.013       239.82
 266.477   21.066   61.658       238.97
  11.918   82.743  196.225       237.66
 306.742   71.239   54.355       236.39
 148.040  166.343  104.617       236.01
 347.500   33.464  238.066       235.58
 267.253   31.445  199.979       232.76
  39.651  156.892  358.237       232.09
  49.393  150.760  270.630       231.54
 158.435   42.753  234.336       231.12
 156.721   42.076    3.229       230.91
  91.764   60.732  317.892       230.27
 353.503   46.489  132.132       229.60
   3.303   51.049  184.716       228.92
 213.891   41.782  117.255       227.89
 204.612   55.972  316.128       227.25
  29.244  147.162  261.445       227.25
 121.236  161.644   84.906       226.50
 177.452  124.735  189.098       226.19
 334.759  109.726  257.719       225.00
 166.079  116.769  100.131       223.75
  11.426  121.112  176.977       223.07
 350.999  139.696  284.749       222.70
  14.661   63.564  179.728       222.62
 166.933   48.285  334.026       221.18
 311.113   47.954  263.655       219.77
 175.860   58.871   41.657       217.51
 180.232  144.494  148.318       217.21
 178.345   54.637  224.103       217.07
 342.320  128.183  198.889       216.67
  62.083  155.873   22.060       216.62
 264.305  139.864   48.103       215.43
 268.785  170.621  183.228       214.88
  53.343   16.309  212.703       214.81
   4.927   69.026   75.282       213.31
  12.159  124.713  300.856       212.94
 127.775  149.151   16.852       211.88
 358.659   93.205  238.570       211.84
 172.882  108.883  155.074       211.19
   1.902   52.118  187.299       210.56
 116.272  114.153  119.723       210.00
  94.778  160.838   50.359       209.70
 161.806   45.958   14.521       209.31
 188.857   73.315  241.813       207.49
 316.300   38.512  253.381       207.16
 160.559   49.701  245.686       206.34
  15.305   46.287  177.762       206.09
 280.189  121.429   60.720       205.57
 153.464   35.113  236.001       205.25
 355.216   74.149  255.599       204.90
 355.665  133.779  274.863       204.82
 194.317  158.797  169.953       203.48
  72.348   72.882  121.797       202.95
   2.667   78.337  162.837       202.30
 335.355  140.380  258.277       202.07
  10.028  118.359  213.056       201.56
 344.857   35.579  220.412       200.70
  95.732  163.594  324.548       199.50
 289.438   82.183   64.001       198.78
 104.307   67.724  318.001       198.38
 206.801  124.693  240.164       197.25
 329.112   20.293   67.506       196.88
 322.797   47.840  212.434       194.77
 152.406  153.393  164.117       194.28
  57.633  116.633    8.238       193.04
 135.329   37.277  160.420       192.52
  19.969  125.833   43.458       191.39
 342.764  147.625  215.966       191.10
 192.057   91.017  312.929       191.00
  11.436   56.948  163.999       191.00
  53.637  151.593   34.929       190.35
 295.386   30.081  275.657       189.85
 296.635  156.240  267.927       189.64
 172.359   72.366  282.556       189.34
 277.445  100.468   53.540       189.17
   6.081   54.296   54.835       188.25
 352.057   40.107  218.205       187.54
 346.123  112.637  206.657       187.37
 299.862   51.891  294.058       187.05
 160.311   59.547  274.636       187.03
 173.476  123.011  156.746       186.50
  38.128  148.489  339.168       186.18
 190.058   81.103  304.356       186.10
 143.748   37.803  273.625       185.81
 184.744   63.722  318.717       185.67
 345.752   93.945  268.909       185.57
 209.185   32.622  222.304       184.46
 265.247   14.164  320.018       183.62
 351.815   87.175  114.454       183.59
 341.947  130.325  304.563       183.00
  29.959   36.982  187.307       183.00
 197.806  125.242  184.425       182.41
  26.966   85.017  180.453       182.25
 178.288  106.970  157.227       182.03
 339.406  103.248  107.083       181.73
   1.472   28.952   36.864       180.94
   4.302  125.413  327.588       180.75
 183.305  152.625  287.878       178.88
 278.166   92.038   89.534       175.39
 286.586  152.394  257.041       175.37
 175.379   85.038  292.768       175.34
 207.959  145.378  196.312       174.50
  15.107   99.572  265.027       174.42
 178.583  149.418  158.602       174.27
 117.877   98.063   19.216       173.76
  14.076   42.042  212.025       172.40
  62.180   35.216  133.623       171.96
 175.756   48.014  290.795       171.67
 188.446   56.038   79.608       171.31
   2.720   52.933  146.835       170.18
 359.342   90.915  149.657       169.91
 289.900  122.202   66.005       169.81
 204.033   91.411  152.652       169.50
 189.232  118.039   15.651       169.25
  36.557   48.929  151.269       168.98
  12.588   66.294   61.025       168.37
  47.415  150.550  295.800       168.37
  74.733  139.776  342.843       168.25
  69.194  105.351  113.703       168.25
  87.149  116.138   56.751       167.75
   5.232   51.985   24.692       167.44
 175.705  121.669  126.785       167.24
 196.423   47.344  227.286       166.94
 156.006   44.197  116.829       166.14
  74.569  143.783  345.825       165.37
 208.968   30.944  256.945       164.73
  93.488  159.289   65.444       164.58
 231.259   31.245  245.643       163.72
 192.169  151.791  172.205       163.60
   2.851  121.409  216.879       162.99
 352.951  132.655  184.685       162.82
   5.618   90.758  220.041       162.71
  63.929   19.466  336.554       162.32
 359.276  156.150  274.432       162.04
  15.976   60.134   86.988       162.02
 199.677  118.420  191.935       161.73
 191.141   35.023  179.714       160.20
  96.207  119.070   98.276       160.18
   0.154  131.260  284.317       160.14
 227.847  160.879  216.661       159.99
 351.202   87.395  126.202       159.07
 161.077  140.469  119.102       158.40
 259.806  151.646  250.211       157.99
 359.437   81.787  213.533       156.22
 354.166  171.488  273.100       156.17
 157.739   23.661  230.274       156.12
 354.162  118.736  270.907       155.93
 205.082   40.197  290.266       155.76
 354.735   55.682  240.050       155.42
 155.016  135.581  134.027       154.78
 184.105   47.627  280.836       153.25
 343.478   70.352  226.331       152.70
 185.719  124.283  123.356       151.94
  87.872  151.226   48.367       151.55
  72.476   71.463  146.993       150.81
  14.592   67.161  110.536       150.31
 177.984   78.116  141.101       150.27
 192.727  124.690  194.282       149.94
   9.358  138.448  306.993       149.75
  46.281  131.823  344.447       149.06
 154.074   43.784  310.002       149.01
 189.580   92.445  211.132       148.49
  65.949   26.657  305.880       148.13
 169.332   77.360  240.353       147.27
 352.170   82.410  108.035       146.39
 353.099   96.878  271.972       146.36
 352.437   82.428  262.683       146.15
 203.563   99.775  184.611       145.50
 179.586   56.830  231.533       144.81
 350.649  116.879  266.053       144.34
 282.215   26.405  199.302       143.92
 358.983   48.028  194.447       143.88
   6.728   16.609  205.832       143.65
  72.476   57.795   11.641       143.13
  19.034   80.421  102.438       142.44
 193.128   43.036  208.722       141.50
 207.986   90.027  271.496       141.25
  85.829   36.172  109.781       141.15
  57.964  153.183   33.503       140.76
 334.668  131.114  132.645       140.25
 261.487   15.657  354.463       139.74
 346.732  102.039  247.033       139.53
  48.634  165.673  355.580       139.17
  16.868   50.523  156.116       139.12
  19.891  133.408  317.372       138.25
 343.448   76.601  223.397       138.12
 164.078   54.385  244.785       138.00
 201.533   57.585  272.462       137.00
 165.035  130.180  226.096       136.69
 180.410   63.412  251.470       136.24
   1.652  111.215  147.518       136.24
  30.504   34.149  138.394       135.80
 341.064   61.270  225.320       135.00
 214.248  110.353  334.557       134.31
   6.089   66.664  220.864       133.74
   4.789  133.074  199.884       133.59
   1.038   76.450  140.635       133.38
  15.208  145.652  301.202       132.75
 190.897   66.937  279.812       132.75
 250.972    1.216  143.114       132.57
 347.290  136.801  181.134       132.05
 310.863  139.052   99.428       131.82
 160.373  126.101  146.109       131.75
 172.534  104.090  145.582       131.59
  43.240   74.182   75.369       131.00
 179.635  100.423   83.250       130.72
   9.142   82.247  192.793       130.24
 342.987   58.146  270.626       129.88
 171.752  102.315   89.880       129.40
 142.452  142.891  140.873       129.09
 358.931   71.729  213.259       128.22
 195.831   88.763  254.736       127.87
  94.841  150.104   54.212       127.75
  40.961   98.440   65.339       127.50
 153.485   51.558  297.576       127.24
  41.682   24.618  356.846       127.23
 356.248   46.608   46.077       127.16
 335.907  138.587  248.517       126.82
 356.788    3.165   28.696       126.75
  21.273   48.134  212.199       126.75
 187.969  145.238  179.182       126.39
 169.775   17.608   77.439       125.09
  11.063   48.353   96.214       124.26
 310.168   87.061   87.268       123.75
 351.580  116.413  147.994       123.62
 176.548   63.576  150.220       123.55
   7.970   70.367  140.223       123.40
  24.448   49.339  186.125       123.26
  94.748    2.464  346.689       123.02
  43.169  164.785  347.957       122.84
 182.125   97.756  116.899       122.75
 211.547  132.479  338.634       122.41
 187.957  120.563  236.204       122.29
  31.404   35.495    3.658       122.07
  91.971   40.306  149.050       122.00
 315.173   10.914  172.672       121.89
 251.387  156.511  214.345       121.08
   3.817   94.506   93.985       121.00
 267.119  130.225   42.978       120.54
 196.578  123.516  182.696       120.34
  29.977   30.691  225.286       120.29
 234.939   63.084  305.917       119.94
 309.800  165.798  295.250       119.87
  79.005   78.100  145.496       119.25
 273.157   60.930   84.337       119.06
   1.100   83.207  215.768       118.69
 199.341   98.676  206.462       118.67
 114.244  119.944  301.427       118.21
 180.088  130.007  219.408       118.14
 333.645  161.514  268.016       118.06
