TEXTURE AT STRAIN = 0
1.0   1.0   1.0
DISCRETE TEXTURE FROM ODF FILE RD_800C_5
B 1509
 192.079  142.915   70.715     62452.70
 190.432  148.851   14.374     48044.63
  39.584   33.231  307.037     39445.76
 354.001  148.290   56.847     38825.18
   9.695   34.564  335.724     38761.97
 190.966   34.400   44.889     36528.37
 192.351   38.674  291.767     36109.51
 323.720  153.181  210.458     31423.88
 355.603  148.625   68.995     27872.54
 183.375   95.364  270.689     26716.62
 340.635  154.064  227.512     24931.86
  16.881  138.072  248.988     24679.56
   3.626  157.179  228.886     23493.39
   5.177  104.862   58.254     23007.70
   1.177   26.588  167.663     22509.73
 137.580  170.219   29.806     22181.46
 172.012   97.902   81.194     21784.65
 348.247   36.874  126.334     20830.08
 350.418   30.806   66.015     20391.72
 159.955  144.932  337.922     20354.19
 182.247  150.418   25.001     20028.28
  29.781   33.786  181.607     20019.84
   9.091  136.015  243.629     19803.11
 195.167   59.941  338.939     19220.57
   0.801   93.261   34.775     19172.94
 150.817   48.132  194.309     18794.34
 185.964  130.107   67.336     18658.08
 172.926  115.616   14.763     18624.72
  31.168   23.854  146.287     18245.13
 332.353  147.078   49.987     17597.64
  25.843  143.796  179.593     17592.73
 163.091  143.148   44.687     17060.24
 182.097   63.347  106.107     16964.27
   6.780  143.579   60.043     16393.84
 357.228   83.910  346.648     16363.55
 241.132    6.449  223.721     16303.17
 177.781   83.659   17.470     16102.44
 189.037  145.422   66.028     16068.31
 158.875  143.082  347.711     15763.11
  15.456  138.976   69.145     15499.26
 232.196  155.572  106.520     15477.61
  14.845  154.134  210.282     15427.38
  25.970  142.868  278.344     15363.58
 211.677   21.148  270.003     15353.76
 153.802  145.626   34.845     15288.52
 183.131  105.955  105.771     15208.56
 336.305  143.599   33.730     15109.80
   6.963  135.910   62.887     15037.66
 198.087   30.547   98.142     14659.50
 340.571   44.951  185.860     14561.35
 350.590  151.512  250.181     14471.91
  16.767   95.605   43.163     14393.34
 191.736   78.409  336.758     14219.56
 212.378  141.488  107.731     13796.79
 353.565   36.089  299.076     13561.67
   0.691  150.147  249.397     13456.88
 355.576   92.503   49.348     13269.24
 167.875   16.554  300.556     13197.51
 164.922   39.346  334.507     13184.08
  34.263  147.080   56.776     13146.55
 180.556   86.446   85.379     13028.49
 192.725   44.119  174.730     12617.10
   4.786   77.932   51.213     12587.19
   8.499   49.775  181.807     12451.14
 240.286    5.960  284.662     12275.32
 280.806  149.798  161.059     12118.29
 184.458  141.832   15.018     12087.98
 349.763   96.323   17.984     12085.38
 341.149  138.187  221.892     12028.65
 188.274   93.418  111.757     11939.24
 183.030   86.621  107.741     11898.32
 150.993  152.503   46.242     11821.39
 193.815   60.463  305.523     11655.93
 248.325  135.640  126.225     11608.47
 187.797   85.305  261.576     11475.13
 183.371  106.659   43.217     11408.15
   9.846   34.954  336.972     11382.44
  15.422  128.195   74.815     11063.91
 179.627   80.608  102.758     10972.54
   1.324   87.622   13.760     10945.69
 357.768  140.206  205.833     10876.41
 180.066  139.117   20.034     10761.21
   1.605   26.656  107.943     10746.65
 185.609   23.400  331.838     10604.84
 342.869   30.406  179.977     10566.52
 169.777  142.333   46.570     10543.93
  20.682   27.936   57.421     10471.98
  22.601  143.354   76.509     10084.87
 144.987   26.893   32.317      9988.45
 171.725  156.547   48.323      9961.02
 148.464   29.036  134.924      9930.24
 187.728  156.968   66.862      9861.94
 174.351   70.725  328.021      9762.80
 355.710  148.557   50.939      9632.80
 187.786  142.943   74.446      9412.83
 190.048  144.996   83.747      9411.60
 183.984  122.322   60.157      9346.15
 198.208  146.599   75.244      9336.07
 203.918  146.345   42.214      9133.97
  27.556  143.456  204.335      9072.48
 175.376  154.117   47.989      8954.70
 355.975   38.622   61.749      8948.05
 337.004   89.991   37.429      8928.72
  10.965   47.531  285.671      8901.48
 346.115  144.666  246.529      8873.44
  16.835  131.250   73.007      8839.52
 211.975   26.779   99.697      8803.87
 217.358  142.841  338.891      8752.05
   0.642   29.830  117.949      8748.01
   0.532  150.056   69.378      8731.27
   8.516   95.794   49.206      8720.99
   0.044   88.904   24.724      8638.60
 175.789   35.766  333.495      8614.86
 173.535  145.570  291.545      8561.53
 186.786  136.842   72.592      8434.87
 230.916  148.650   97.376      8429.03
 354.155   38.935  307.454      8391.06
 186.446   79.239  283.840      8382.26
  11.054  126.567   63.270      8377.50
 352.878   28.780  183.065      8339.82
 176.777  151.933   41.872      8259.01
  14.805   44.806  333.886      8188.41
 175.626   87.761   11.252      8167.49
 155.078  162.328   26.566      8119.85
   5.366   82.958   19.059      8010.73
 175.557   79.835  281.021      7872.17
 351.929  151.903  236.248      7869.14
 180.201   63.029  341.132      7756.13
   6.019  137.258   71.291      7679.05
 342.397   36.853  315.932      7649.60
   8.037   91.239   31.532      7621.75
 177.535  134.082    0.526      7530.96
 355.525  148.230   50.536      7459.94
 353.647   49.829  194.866      7448.37
 192.553  150.063   80.823      7395.86
 242.723  154.632  120.310      7394.70
   3.304  156.966  228.505      7376.85
 175.429  113.361   75.666      7347.79
 316.789  148.211  193.292      7281.11
 337.709   33.277  149.793      7264.51
 145.410  143.211  345.432      7252.51
 183.848   95.452   30.517      7201.29
 193.266   39.232  336.461      7101.41
 178.494   78.585  129.758      7067.92
 181.614  104.290  301.366      7054.50
 191.254  139.898   73.047      7007.59
 157.527   19.219  320.211      6919.88
 358.739   43.943  315.976      6886.63
 154.532  152.608   29.371      6817.35
 213.994   36.629  285.750      6795.44
 283.553  146.999  170.781      6778.38
 155.299   32.957  130.659      6732.48
  23.666   27.269  206.828      6705.63
   7.943   90.261   81.352      6582.66
  14.179   33.040  171.373      6558.41
 175.916  103.819   33.515      6533.30
 192.904  142.334   91.188      6503.25
 176.802   37.882  145.207      6492.51
  39.357   24.774  273.043      6488.67
 327.052  141.936  286.422      6437.77
 163.144   42.763  196.863      6431.97
 345.533  132.977  240.034      6399.35
 194.389  157.217   37.709      6388.38
 182.848   50.885  132.140      6354.89
 180.715   91.492  337.875      6342.19
 155.916  131.116  335.206      6340.17
 359.492  148.551   12.271      6335.84
 191.900   24.157  307.796      6329.92
 223.529   41.564  285.319      6295.28
 205.623   35.427  341.207      6245.49
 154.502  140.738   30.449      6224.29
 182.581  114.008   71.690      6164.22
 354.358   26.100  312.519      6068.24
 169.447  135.783  346.621      6003.29
  24.128  138.153  251.536      5968.36
 354.955  148.883  230.897      5934.01
 350.994  144.300  227.053      5927.94
 178.855  140.654   17.170      5906.29
 355.471  145.447  235.360      5895.98
 172.989   62.216  151.816      5882.91
 165.894  140.049   68.058      5857.80
 346.190   43.567  311.691      5831.81
 346.036  145.128   46.020      5792.05
   0.028   40.288  100.334      5755.89
 188.116  150.725   80.386      5734.42
 188.452   96.975    4.673      5727.84
  13.675  140.761   83.784      5651.68
 243.951  161.413  130.257      5580.96
 186.831   64.381   14.255      5548.62
 277.535   89.211   95.423      5458.46
   6.898  142.728  223.602      5454.23
 193.062   81.253   21.303      5354.63
 182.176  101.671  107.575      5318.26
   2.232  137.112   25.524      5308.74
 354.392   49.634  194.461      5290.12
 351.881  143.873   47.573      5251.58
 199.735  155.165  320.197      5204.21
   8.045  102.390   73.175      5165.55
 179.736   80.760  162.895      5161.51
 177.347   48.911  346.553      5145.20
 352.098  143.711   48.501      5135.53
 352.498  104.871   41.453      5130.33
 185.591   90.684    7.746      5124.13
 190.970   85.451  315.287      5065.38
   1.520  154.705   53.115      4974.45
   0.526  145.651    3.525      4921.62
 133.250   27.863  228.110      4904.30
 342.567  147.670   31.406      4890.59
 358.849  103.334   45.344      4876.16
 215.450   44.378  157.695      4867.06
  17.278   95.710   44.216      4850.61
 160.445   36.920   21.518      4776.42
 186.810   88.811  137.721      4762.56
 178.229   85.860  357.611      4684.91
 173.772  145.894  348.204      4679.42
 187.683  151.758   76.257      4659.91
 213.458   36.721  285.713      4604.66
 190.088  102.345  357.941      4577.23
 195.938  142.265   15.280      4545.55
 165.165   96.454   42.712      4521.59
 168.539   33.595   17.759      4503.28
  24.558   23.567  313.235      4496.84
 110.645   72.486  150.064      4477.64
 354.949  100.304   18.642      4458.15
   5.091  108.258   58.908      4401.72
 184.694   84.451   94.141      4397.68
 216.563  151.707   86.424      4363.90
 345.331   34.266  315.693      4343.55
 178.732  149.959   51.037      4343.19
 160.708   27.073  173.785      4328.39
 160.620  137.018   33.651      4270.54
 349.254  140.132   51.924      4266.04
 180.416  120.868   68.933      4232.03
 348.150   91.458   51.217      4182.90
  12.131  140.549   68.641      4157.79
 187.371   17.565  138.843      4156.88
 188.795   95.445    1.212      4137.00
 181.528  150.191   62.579      4130.89
 357.766   63.575  320.064      4123.10
 354.419   80.957   15.885      4088.51
  18.514  132.202   71.109      4055.81
 146.839   47.190  198.547      4046.94
 313.470   33.795  225.387      4030.48
   1.446   10.885  298.761      4017.78
 327.235  153.299  203.001      3996.71
   0.669   82.498   57.035      3978.52
 181.813   42.947   94.244      3957.74
 357.548   84.872    3.185      3956.00
 332.122   33.043  211.657      3949.08
 175.699   82.580  108.293      3897.26
 247.514  148.042  102.270      3840.82
 181.477  150.745   24.193      3808.35
 150.134  125.913  343.653      3807.05
 186.512   48.841  318.720      3800.99
 197.827  157.511   30.469      3724.63
 188.503   88.137  328.546      3615.66
 175.479   87.601   10.848      3608.73
 155.783  138.051  358.106      3599.42
 183.363   95.748   90.639      3573.72
 180.929   94.478   48.593      3561.10
  17.404  154.266  258.213      3516.93
 172.875  115.362   74.619      3491.51
 158.541  141.644   47.920      3487.27
 342.183  138.842  281.820      3477.57
 186.853  142.386   17.456      3458.04
 181.095   81.983  277.296      3441.87
 187.011   96.271   98.315      3437.47
  21.395  140.930   67.435      3436.39
 189.629   94.003   73.372      3412.14
 197.646  146.811   74.967      3401.03
   8.258  102.632   73.544      3396.64
 151.648  152.798   47.374      3388.18
 254.677  105.499   77.128      3371.29
 169.721  140.693   50.215      3362.78
 190.074  157.017   93.321      3352.38
 180.471  114.631   13.430      3296.24
 173.571  148.544   12.746      3281.65
  32.895   34.464  287.210      3273.65
 180.510   94.177   48.634      3263.18
 171.935  151.380  356.574      3253.66
 221.477   37.662  275.319      3238.07
   1.327   96.536   34.394      3237.20
 198.376   35.954  115.083      3219.02
 194.180   44.476  103.599      3157.10
  10.024  153.346  248.060      3133.71
 181.859   25.151  127.058      3125.34
 185.141  102.656  108.942      3104.56
 357.299  130.826   72.670      3070.06
 154.534  148.893   33.689      3061.55
  36.089   38.767  303.975      2983.46
 352.287   98.372   10.581      2907.68
  97.901   90.862   84.250      2894.81
 205.298   28.091  315.238      2892.52
   5.198   45.399  115.810      2857.31
 195.271  105.436   79.789      2852.69
 191.946  143.274   71.248      2851.47
   9.424   77.457    2.668      2835.37
 102.896   78.531  218.301      2831.04
   1.911   95.218   33.381      2818.05
  22.241   42.981  333.477      2809.97
 354.040  105.086   42.565      2773.88
 157.183  142.310  346.385      2740.25
 179.899   38.019  105.929      2731.44
 183.370   29.309  301.846      2726.54
 166.106   28.870  134.411      2630.91
 192.063  157.182   95.092      2624.92
  15.431  120.166   81.754      2592.88
  31.850  153.264  260.190      2526.48
 182.498   38.353  304.172      2515.80
  26.340  137.563  263.055      2505.46
 230.052  104.472   85.254      2503.33
   2.600   36.505   57.092      2502.09
 186.261  136.723  312.280      2441.33
   7.039   37.784   89.316      2407.84
 201.887  135.586   83.270      2391.96
 188.898   75.637   18.166      2387.63
 169.495  129.489    1.782      2365.98
 359.264   86.457   88.632      2335.67
 305.615   85.976   35.394      2324.41
 169.235   87.558   68.023      2314.02
 181.062   91.359  338.011      2308.39
 178.649   91.025   37.991      2308.17
 180.245   42.575  306.249      2305.40
 344.432  136.413   42.453      2292.37
 345.943   70.092   28.265      2288.91
 354.594  137.394   63.452      2275.05
 171.280  151.263   56.267      2274.62
 352.741  104.981   41.470      2249.07
 165.762   79.782   22.456      2247.58
 271.953   80.533  198.485      2235.21
   0.630   61.859  346.994      2234.70
 192.486   39.393  291.216      2233.48
 235.240   22.234  256.249      2208.51
 224.090  163.811  108.327      2199.68
 253.685  104.049   84.739      2192.13
  11.934   22.224  170.918      2184.98
 184.706   41.278  125.909      2166.80
 176.163   90.374  153.480      2160.73
  89.919   71.542  209.987      2155.54
 170.829  146.564   24.762      2155.54
   2.881   98.335   64.901      2150.34
 150.671  139.182   37.021      2130.42
 104.355   89.738  175.020      2127.76
  10.276  123.086   76.798      2108.77
 178.480   30.624   75.115      2095.11
 340.080   39.793  308.983      2076.73
  83.293   87.536  212.369      2069.80
 145.573  129.893  354.441      2054.21
  18.166   46.077  333.105      2054.21
 275.321   92.234   37.290      2039.49
  89.914   70.935  269.944      2033.43
 106.074   69.044  209.224      2032.35
 187.231   96.525  281.186      2029.10
 109.894   95.994  212.306      2008.17
   3.535  151.327   40.585      1996.48
  68.830   34.114  266.403      1990.99
 166.948   48.913   88.332      1987.39
  13.430  122.034   86.663      1964.15
 168.107   87.793  128.008      1955.49
 102.023   83.083  215.197      1930.01
   3.977  156.803  266.669      1919.70
 116.463   89.596  150.125      1911.32
 357.309   88.175   34.512      1908.86
 186.536   48.848  319.155      1902.66
 340.013  137.676  281.673      1898.40
 350.603   50.312  106.785      1894.43
 110.637   72.713  210.154      1880.84
  70.229   75.399   89.169      1858.49
 344.727   43.187  358.974      1853.29
  79.071   79.393  216.876      1842.21
 182.157   42.877  154.547      1840.30
 105.156   97.345  200.736      1827.89
 168.216   41.267   16.138      1826.88
 182.957   28.241  140.055      1798.73
  72.694   68.858  146.287      1761.50
   3.394   32.839  116.674      1758.03
 183.403   91.721  107.171      1756.30
 178.490  161.988   23.484      1749.08
  53.136  121.835   83.182      1743.02
 177.760   30.815  135.155      1733.93
 219.902  155.540   98.860      1711.41
 173.174   85.648   17.036      1709.97
 196.483  155.181   75.051      1694.81
 266.215   94.448   86.590      1678.36
 233.234  147.602  124.643      1671.49
 139.862  139.782  342.451      1670.56
 189.384   91.762  102.213      1668.83
 186.664   78.264  102.859      1662.91
 354.177   49.777  195.026      1647.32
 160.978  151.786   20.427      1608.79
 282.362   97.274  144.443      1596.52
 265.018   83.056   31.846      1586.56
 268.013   77.783  141.852      1581.36
 182.676   43.167   93.438      1579.63
 178.739   28.813  332.677      1576.17
 179.455  139.527  319.378      1574.07
   7.021  115.917   46.033      1565.77
 359.620   95.189   35.104      1564.33
  26.091  149.826   81.073      1563.18
 112.634   73.235  208.802      1560.17
   0.205  144.011  237.590      1554.08
 202.757  152.825   92.543      1551.05
 229.458  104.914  324.450      1550.28
 177.875   41.874   20.846      1537.20
  32.099   31.629   95.736      1514.68
 110.755  108.419  346.045      1512.95
 173.219  158.756   49.401      1508.18
 272.968   78.917  269.775      1505.22
 205.687   27.083  338.415      1473.11
  93.901   84.798  214.343      1465.60
   5.552   43.802  253.396      1462.72
 173.994  104.454  119.761      1454.06
 278.945   93.174  203.397      1447.71
 356.455   33.669  317.847      1430.67
 266.244   94.376  146.485      1422.88
 265.370  105.123  115.281      1421.73
 357.457  138.301  219.200      1406.43
 197.861   43.463  321.553      1376.98
  94.551  102.623  160.797      1346.67
 354.799  148.344   50.253      1345.80
 186.860   36.012  354.775      1345.23
  28.883  145.964  270.854      1326.75
 352.564   91.773   19.113      1298.17
 168.512  132.002   79.975      1297.31
 118.159   59.472  228.328      1288.65
 275.636   91.675  217.254      1270.46
 119.775   68.368  208.188      1262.70
 194.864  147.971   64.795      1247.94
 258.934  101.236   30.564      1246.21
  21.581  140.859   67.126      1239.28
  97.162   90.957  204.366      1235.82
 182.608   83.829  314.420      1221.96
   1.676   93.688   94.103      1217.63
 105.996   87.859  155.914      1216.62
 185.730   42.741  169.114      1203.78
  89.350   77.129  208.363      1202.04
 351.476  144.089   48.259      1190.78
   0.780   82.293  357.404      1189.05
 184.028   84.037   13.737      1158.74
 187.873   85.592   82.578      1155.86
 231.332   55.785  268.040      1133.05
  80.725  121.547  138.398      1131.90
 276.414   89.553  163.282      1123.23
 199.320  156.797   33.943      1108.44
 297.041   90.177  209.926      1105.91
 144.589  147.758  355.825      1099.85
 267.007   93.614   86.234      1087.73
 106.678  109.715  159.146      1086.86
 157.843   31.821  317.702      1079.64
 257.058  119.316  148.105      1079.50
 263.327  111.376  150.476      1078.20
 105.330   87.340  203.092      1072.91
 316.235   34.002  142.023      1072.00
 209.189  155.459   90.888      1069.54
 194.170   30.146   95.042      1065.21
  94.034   73.319  242.208      1054.82
 211.651   33.040   94.752      1040.96
   5.720   43.797  253.851      1040.10
 281.567  122.964  281.216      1038.36
 323.852  145.777  208.830      1036.67
 266.266   81.962  272.131      1029.70
  94.507   83.429  209.423      1011.52
  98.021   89.418  257.069      1011.52
 292.719   80.780  340.328      1002.86
 110.841   72.430  210.328       997.95
  60.397  107.405  267.009       989.00
  72.791   70.246  202.789       974.71
  17.841  138.630   69.525       971.10
  82.354   63.872  228.864       964.75
 169.047   80.716  322.151       963.55
 169.118  140.745  350.566       961.29
 266.226   52.681  264.228       960.42
 278.366   73.173  265.661       954.36
  58.367   79.941   92.257       949.16
  13.513  146.067   32.218       935.74
 188.184   63.717  310.567       929.39
 285.868  103.196  174.755       913.95
  53.429  112.323  260.740       907.59
 279.498   85.683   86.893       895.69
 147.291  108.004    5.031       893.74
 270.117  109.200  149.708       888.54
  67.311   72.290  146.951       883.35
 288.403   92.789  152.343       872.95
 315.013  129.778  194.664       870.36
 302.211   74.469  144.366       859.96
 137.014   81.732   24.615       858.23
 194.072   65.624  132.834       856.59
 348.368  148.766  103.662       855.63
  99.204   86.526  156.463       854.05
 286.910   89.227  145.889       854.05
 101.448   81.507   93.498       849.14
 121.359   72.247  206.938       848.27
 263.692  112.024  150.200       845.24
  84.475   78.265  223.770       840.91
  92.351   79.506  131.233       838.46
 193.440   34.656  148.058       836.58
 286.363   95.092  175.591       833.98
