TEXTURE AT STRAIN = 0
1.0   1.0   1.0
DISCRETE TEXTURE FROM ODF FILE TD_800C_5
B 1097
 175.066   38.433  251.054     79389.41
 172.180   39.642  184.532     73414.27
 166.495   30.410  247.243     67116.33
 354.129  150.402  279.852     49052.98
   6.770   29.000   41.734     43547.51
 172.330   78.462  257.890     42738.99
 175.183  145.006  157.171     39037.39
 359.697  128.381  345.547     38293.04
 173.182   31.555    5.952     36892.39
 341.714  157.087  294.106     35606.73
 334.631  145.715  294.572     31406.70
  12.075   39.764  214.161     29501.64
 197.353  147.783   54.080     29323.94
  15.393  149.715  339.938     28943.07
  18.122   91.171   84.370     28646.14
  27.349  148.688  317.937     28149.79
   7.460  138.971  311.599     27394.40
 330.777   42.940  131.943     25676.47
 224.526   37.991  345.761     25094.53
 173.093   41.222  248.640     24928.69
   7.565   38.585  167.036     24458.19
 160.686  146.804  160.029     24221.59
  17.562  154.967  281.411     24079.40
 185.796   33.108  170.825     24074.80
 345.420   29.581   13.817     23852.88
 354.544  153.979  264.461     22793.76
   8.387   42.879  166.949     22466.65
 176.245  151.841   17.883     22367.52
  13.515  141.699  314.929     22272.73
 121.032  150.154  110.587     21893.27
 169.020  144.221  175.935     21852.23
  18.364  146.954   74.761     21457.19
 200.260  138.544  175.783     21272.25
 350.060   28.935  108.082     21029.69
 157.442  135.269   44.908     20190.80
 333.278   35.073   16.312     20028.14
 166.586  155.874   60.483     19819.50
 181.124   38.282  288.325     19692.56
 305.208   35.187   35.888     19491.86
 210.528  145.010  190.048     19270.29
 203.047  154.501  200.864     19209.07
 184.936   85.233  164.849     19207.12
 182.311   43.097  239.791     19105.18
 357.304  148.441  352.879     18956.50
 341.699  128.315  104.946     18896.76
 189.017   39.332  268.330     18874.05
 193.790   42.143  282.492     18784.81
 176.217  144.481  157.326     18760.71
  10.373   30.217  209.985     18555.09
 222.466   45.888  216.636     18395.25
 201.861   48.453  229.458     18359.74
  44.890  152.905   46.647     18343.56
  10.743   22.485   63.668     18300.52
  15.133  150.402   29.916     18296.81
 195.724   93.489  154.465     18058.68
 216.853   25.002  243.672     17860.31
   3.815  114.158  149.690     17490.92
 162.319   95.144  158.711     17327.44
  24.805   36.258  153.588     16987.95
 173.118   40.508  317.817     16722.76
   6.758   45.395  207.298     16663.41
 176.582   85.009  108.830     16314.76
  12.193  137.445   70.413     15828.20
 356.231  142.675  283.876     15673.18
 331.896   39.380  196.971     15643.88
 137.010  150.799  133.587     15352.32
 345.346   62.454   57.202     15249.45
 176.187  143.218   27.503     15046.78
 213.283  146.494  212.976     14858.40
 173.042   29.755  204.933     14425.24
   9.807  147.198  342.604     14215.81
  13.811  135.271  322.763     14162.98
 212.782  152.980  153.343     14073.20
 347.824  126.277  293.328     14009.69
 209.322   28.999   45.306     13968.99
 357.285  147.426  275.037     13753.35
 188.776   88.708  221.429     13677.64
 184.972  153.383  147.383     13304.17
 170.251  135.216  122.673     13021.88
 178.023  144.219  183.146     13002.99
 336.260   37.414  217.305     12875.20
 155.949  145.255  141.420     12850.95
 182.145  115.752  132.460     12795.24
 192.651   38.453  239.699     12722.63
 354.275  150.270  280.556     12404.95
 189.953  144.700  139.269     11629.14
   2.285   71.740  172.369     11519.29
   2.027  136.433   15.040     11483.64
 215.520   28.427  276.074     11464.30
 224.847  146.418  210.545     11372.20
 203.790  149.319  188.664     11361.45
  27.384  123.970  309.731     11165.52
 210.363  154.910  197.681     11048.68
  11.137  137.659  318.011     10901.17
 359.071   78.438  206.799     10701.15
 176.380  145.579  172.972     10636.60
  24.565  140.906  301.146     10564.50
 183.254   26.269   64.339     10532.23
 169.671  146.691  177.136     10491.46
   1.523  128.103  353.990     10476.99
 166.680   20.300  245.648     10346.74
 338.073   43.270  195.650     10335.04
 154.035   16.451   82.827     10260.67
 223.688   29.776  318.830     10198.31
 194.428  143.638  196.198     10178.64
 349.229  139.996  277.538     10030.31
 187.120  136.022  192.350     10028.98
 154.623   40.112  274.108      9955.83
 162.156   36.504  236.313      9894.34
 328.128  150.082  293.088      9833.31
 340.593   40.201  191.513      9775.84
 192.311   32.458  148.834      9596.28
 283.245  150.272  251.450      9595.27
 178.811   80.631  164.822      9590.60
 174.371  142.340  154.806      9541.00
 193.891  147.956  183.944      9501.16
 183.625  145.348  192.553      9407.64
 358.224   38.953  103.000      9331.13
 193.488  127.087  170.773      9292.45
 201.996  141.516  206.963      9287.13
 226.498  154.975  180.009      9240.64
  30.311  149.739   50.751      9216.59
 345.213   39.242  199.185      9173.81
 182.064  146.760  178.261      9114.48
 150.634   20.518  271.697      9068.07
 348.761  136.572  332.217      8971.16
 186.080  145.057  180.153      8773.52
 353.433  152.030  286.920      8560.23
 202.026  153.223  208.117      8542.04
 182.764  142.348  169.581      8532.37
  15.316  128.418  312.309      8496.86
  19.459  149.609  309.812      8423.83
 204.624   25.989  165.570      8408.02
 207.856  147.388  202.465      8347.33
 187.518   93.634  154.674      8312.35
   4.703   80.531  198.773      8291.76
 185.271  133.001  186.620      8217.43
 204.523   30.187  105.936      8215.26
 149.323  142.666   52.534      8126.36
 168.211   33.682   20.806      8058.08
  11.053  128.636   21.100      8039.31
 167.384   95.376  198.547      8021.40
 180.100  122.645  187.036      7910.54
  26.350   27.328   28.414      7889.20
 345.958   43.945   66.032      7884.30
   8.367   24.817  179.055      7871.30
   1.979   73.551   20.991      7785.14
 203.529  142.043  201.105      7779.51
 106.294  147.554  296.001      7776.91
 162.268  148.332  172.050      7761.61
 175.461  140.549  165.327      7752.37
 171.128   33.688   16.938      7730.00
 172.125   93.289  176.376      7684.39
 209.849   38.363   37.698      7501.51
  20.450   41.237  154.708      7471.47
 190.238   74.186  265.024      7307.50
 358.414   83.207  145.463      7177.91
 339.319   40.914  206.677      7141.46
 179.178   96.840  345.081      7002.68
   9.645   47.552  217.413      6944.37
   3.430   36.212  354.825      6937.08
   1.323  136.044    0.017      6786.57
 200.404   30.840  252.676      6779.56
 186.179   92.237  214.875      6756.17
  11.627   93.564  132.605      6736.31
  10.266   39.138  164.895      6729.74
 357.569  150.735  226.874      6688.31
 206.863   32.883  290.777      6678.86
 113.761   49.626  271.175      6647.55
 349.733   94.979  134.887      6598.25
 338.567   24.382   11.304      6460.55
  28.147   34.410  337.678      6408.40
 347.500  120.423  141.913      6375.82
 171.033   42.180  198.690      6318.09
 176.483  142.673  161.587      6226.17
 184.208   36.875  290.200      6186.89
 148.302   31.658  100.523      6020.49
  32.734  139.043  311.011      5999.54
 162.844   24.714  277.441      5992.01
  28.646  149.235  235.118      5943.39
 166.994   95.732  198.140      5918.32
 184.039   75.306  157.607      5907.52
 175.618  158.135  116.802      5868.98
 192.797  139.560  187.847      5842.21
   2.330   97.580  110.520      5754.63
 207.955  142.878  203.209      5741.17
 179.821   49.670  188.035      5729.74
 212.069   30.403   30.773      5665.54
 191.143   45.379  220.010      5662.07
 196.810  144.129  194.528      5660.34
  44.817  140.244   81.026      5600.84
 169.538   25.196  180.967      5550.36
   4.857   39.221  219.891      5511.12
  22.253  146.956   22.371      5435.46
 143.924   35.068  260.407      5432.58
  14.653   37.161  161.461      5373.69
 357.956  131.180  341.587      5360.33
 235.066  155.062  205.209      5339.38
 286.409  132.751  247.976      5339.15
  87.909   28.985  129.565      5292.28
 170.939   23.476  258.887      5278.57
 349.011  168.293  259.691      5195.57
 153.880  146.348  186.547      5161.52
 204.022   23.353  331.706      5052.10
 190.729  125.446  187.183      4978.78
  13.870   32.515   10.687      4968.97
 346.222  140.526  231.058      4967.81
   2.980   90.387  209.281      4935.07
  30.764  138.648  303.717      4905.17
 185.146   46.847  161.760      4883.96
 168.759   89.016  350.480      4821.16
 341.624   38.574  198.513      4793.45
 203.655   48.134  259.719      4753.61
 204.246   37.081  159.197      4690.39
 181.539  138.335  130.319      4680.87
 281.556   70.939   57.016      4660.00
 178.964   29.986  190.716      4646.23
  21.711  135.833  297.188      4498.14
  20.897  153.103   14.352      4469.56
 152.589  134.039  326.101      4460.90
 332.684   42.152  225.626      4444.23
  16.290  144.294  332.816      4434.34
   7.064   53.478   54.225      4355.24
 174.591  144.823  171.631      4340.95
 329.651  136.574  271.420      4337.66
   9.894  116.962    9.595      4336.33
   4.955   65.038   10.870      4241.72
 189.852   63.172  230.658      4235.01
 214.134  144.901  192.525      4214.95
 173.557   28.011   54.461      4124.29
   6.869  157.119  291.318      4099.91
 196.528   29.917  331.437      4092.84
   7.570  142.988  225.006      4088.65
 212.821   58.225   35.343      4083.31
  38.112  147.747  274.537      3965.49
 179.598   92.117  128.616      3958.89
  12.400   34.424    2.138      3954.13
 166.669   68.109  259.706      3922.66
  15.568  149.428  339.704      3914.43
 177.599  100.745  345.330      3905.49
  25.017   47.729  336.035      3887.73
  24.773   28.221   55.007      3868.54
 194.134   65.342  244.224      3816.86
 208.299   30.354  283.371      3813.11
 166.948  134.286  172.931      3789.73
 359.487   68.203  190.114      3745.56
  65.168   39.620  151.790      3684.36
 359.029   82.204  205.320      3671.08
  17.588  146.745  311.276      3627.92
  25.969   33.695  335.440      3611.04
 355.677  151.249  342.470      3590.54
 357.808   92.634  174.933      3590.54
  11.046  141.025  118.507      3582.15
 203.690   48.828  170.577      3581.30
 348.557   91.013    9.765      3517.22
 176.146   87.552  184.971      3509.10
  51.026  161.748  333.257      3491.81
 190.839  155.583  135.547      3434.51
 176.079  142.748  174.949      3422.68
 349.689  150.950  345.116      3411.20
 164.143  134.114  166.916      3405.21
  14.263  131.080  319.039      3396.55
 355.606  139.429   71.359      3392.22
 188.917   88.811  161.421      3380.96
 218.738  145.383  174.787      3312.01
  60.960  159.422  345.069      3298.69
   0.541   30.757  125.206      3281.11
  19.279   44.302  168.478      3255.46
 328.794  142.544  309.970      3189.60
 173.617   38.077  262.438      3184.66
  22.820  153.242  313.766      3178.89
 338.589   51.160   44.504      3174.85
 180.082  111.960  170.188      3135.01
   3.539   40.101  165.498      3128.08
  10.339   38.138  164.687      3119.42
  46.631  155.360   58.480      3118.58
 177.549   48.954  346.124      3083.34
   7.657   32.864   17.422      3066.02
 339.112  134.468  100.234      2977.40
   3.998   47.671  243.244      2943.76
 220.049   34.538  148.862      2940.44
 190.940   37.209  348.824      2857.45
  15.524  154.456  321.272      2838.25
 175.944  105.719   98.200      2818.34
   8.144  119.064  313.442      2810.25
 217.664   22.562  349.003      2778.07
 162.450  142.296   31.382      2734.91
  21.142  141.995  330.429      2728.85
 353.218   87.241   86.499      2722.12
  17.473   79.220  159.518      2720.69
 169.560   84.742  345.200      2717.30
 186.432   91.737  154.337      2710.95
  15.914  134.401   17.656      2708.06
 187.291  145.203  150.179      2706.76
 280.254  106.695   73.468      2706.10
  13.854   40.729  350.065      2672.55
 178.170   63.555  312.891      2664.81
  42.333   88.999   15.516      2593.46
 176.778  133.297  217.288      2582.78
  10.097   46.381  359.009      2555.64
  66.346   61.339  301.708      2517.98
  16.308   91.667   84.571      2510.78
 346.857   38.474  202.051      2483.76
 337.394  140.761  286.600      2465.57
 336.209  160.523  231.851      2442.19
 199.797  148.311  178.771      2428.77
  35.107  147.528    8.672      2425.16
 174.675  139.692  169.302      2425.09
 181.978  115.763  192.199      2424.87
 172.189   66.711   58.045      2378.03
 184.793  115.642  172.408      2365.95
 202.460   24.742  221.421      2306.66
 144.785   43.980  270.250      2287.46
 176.092  103.715  132.179      2280.53
 178.873   41.397  285.265      2241.56
 170.072  122.846  168.327      2232.04
 182.219   78.398   32.810      2221.40
 314.256   26.017   41.832      2218.47
 200.154   27.671   47.829      2178.05
 357.612  103.520  177.885      2161.91
 286.083  132.966  247.205      2153.52
 346.505  144.428  187.459      2061.57
 248.771   48.627   52.228      2043.82
   4.181   98.573  168.524      2008.31
 129.356   35.530  239.833      2004.49
 326.191  176.144  299.537      1969.34
 158.291  134.029  338.911      1966.74
   9.786  147.701  340.906      1965.01
 121.734   23.383  272.968      1934.27
 191.564  100.044  207.728      1866.25
 207.833   34.917   11.881      1862.60
 197.454   47.394  231.352      1850.70
 248.231  107.831   16.823      1842.04
 353.982  155.603  277.955      1832.51
 284.449  105.847  241.361      1813.65
 352.553  136.592  354.787      1811.81
 337.954  149.634  281.451      1758.18
 177.934   90.741   77.985      1746.34
 180.279   99.722  153.007      1733.78
   7.560  150.660    4.570      1728.73
 170.205  126.475  168.594      1660.89
 338.776   51.915   44.135      1603.59
  10.386   55.091  172.815      1579.63
  99.284  127.779   13.319      1569.53
   0.534  130.793  354.076      1563.44
 136.073  153.527  329.720      1559.13
  52.753  114.881   85.052      1557.11
 111.801   48.813  133.899      1540.51
 182.648  133.101  139.169      1525.94
 189.730   36.913  261.926      1520.41
   6.390  120.642  319.973      1517.62
 196.894   34.656  250.483      1489.56
 169.635  126.257  168.343      1489.20
 357.130   64.965   49.473      1481.43
  81.159  161.584  104.640      1477.44
 184.056  132.340  177.310      1471.52
 159.920  139.455  212.765      1466.33
 177.758  149.960  135.953      1453.19
 161.282   94.016  280.168      1416.58
 194.484   31.986  240.205      1404.69
   9.808   46.150   59.252      1393.43
   4.790  106.865  201.331      1382.75
   8.705   50.211   14.221      1378.64
 150.259   78.792  323.895      1360.53
   9.120  141.279   20.140      1357.93
  15.701   46.974  172.722      1327.26
 347.683  116.933   96.411      1317.15
 185.309   86.140  195.033      1314.18
 184.117  139.228  172.942      1300.08
 151.077  140.130  149.000      1287.78
 353.709  129.257   68.345      1283.74
 166.399   70.467  180.259      1272.19
   9.937   79.618  127.548      1270.74
   5.452  130.365   76.725      1245.01
 110.654  122.388   56.990      1221.96
 223.818  121.582  207.313      1195.12
 246.514   53.266   19.836      1186.31
 178.881  111.748  169.399      1156.14
 252.790   86.527   31.289      1151.31
 329.654   26.316  254.239      1135.79
  12.294   93.397  192.017      1104.09
   9.182  108.799  109.323      1102.59
 171.934   77.297  257.889      1098.26
 198.824   31.422  190.562      1093.79
 358.203   38.175  214.812      1088.59
  88.706   66.580    8.528      1065.93
 114.929  107.203  328.033      1060.02
 252.723   31.696   38.706      1056.26
 198.042   46.779  358.680      1048.80
 355.371  121.557  107.906      1016.38
 351.487  140.293  114.946      1011.11
 352.635   64.090  357.018      1008.92
 163.222  153.253  162.595       984.38
 243.974  107.957  244.062       963.89
 271.966  113.792  232.922       958.83
 243.561  115.759  236.019       957.82
 164.202  139.976  141.760       926.65
 197.813  148.175  180.788       905.00
 205.655  148.591  183.531       897.20
 255.762   99.685   51.570       893.79
 183.496   96.471  271.840       885.94
 127.265  124.042  151.727       864.10
 344.628   45.256  265.688       840.04
 359.967   78.490  205.839       824.46
 300.265  134.729  233.413       822.51
 284.180   98.855  243.082       816.73
 180.814  143.224  189.240       816.66
 109.794   72.785  284.339       813.20
 357.695  104.411  117.270       811.03
 172.081  140.379  167.648       802.81
 122.926  149.006  108.324       796.65
  50.284   32.811  348.053       793.98
 174.604   89.442  311.256       792.70
   9.530  117.345  309.299       782.89
  15.502   85.896   85.649       774.44
 343.716  138.115   91.936       774.23
  74.414  108.009  344.032       772.49
 201.673   24.164  327.487       769.03
   0.200   79.504  146.616       757.77
 250.697   30.065   46.439       748.25
  81.686  162.593  104.199       738.72
 259.709  111.576   47.674       736.16
  80.980  117.158   88.411       698.16
  78.849  155.986   50.542       696.28
 343.872  131.948  107.757       692.99
 154.430  112.577  343.150       662.80
 185.677  157.916  115.261       661.43
   8.552   83.684  158.493       655.58
 254.065  145.941   24.400       654.23
  63.703   88.785  331.616       652.12
 178.671   87.474   67.207       650.82
  62.498  151.239  348.965       645.87
 260.113  111.529   48.372       637.39
 357.586   34.717  252.980       635.66
 178.109   68.430  226.126       634.80
 270.267   44.034  341.008       633.50
   3.768   83.610  208.167       631.04
   1.152  135.776    3.397       629.60
 327.439   48.842  234.084       628.30
  66.274  131.055  306.280       622.09
  80.860   68.352  131.930       621.73
  20.573  120.852  290.518       600.97
 132.114  136.504   77.264       600.16
 236.427   94.392  240.851       599.29
 278.757   76.263   84.174       595.54
 347.409  167.369  317.727       589.69
 170.286   35.210   56.406       588.03
 300.169  138.059  230.932       570.60
  31.851  162.117  313.410       567.54
 175.854   89.510  316.887       559.45
 164.797  144.854  169.024       557.14
 178.303   89.829  317.368       551.37
 353.667   72.233  225.303       548.19
 358.746   98.970   15.883       548.19
 165.250   30.036  226.688       544.73
 352.504  135.903  353.681       536.96
  81.544  103.007  116.170       528.28
 293.904   23.828   58.565       526.54
 170.479  122.406  168.162       526.11
 184.101   85.960  202.426       521.35
   4.743   85.964  219.437       515.57
 105.885  122.388   83.079       511.97
 293.907  153.636  248.750       501.43
  46.097  152.686  319.911       499.70
 343.136   60.449  115.524       492.77
 256.114   98.680   35.550       491.90
 352.648   57.642  190.357       490.03
 174.153  109.740  179.253       486.21
 240.320   98.020   50.707       478.91
 187.920   88.695  161.567       474.00
 134.668   68.302  164.944       467.58
 300.949  108.343   82.161       464.19
   0.009   81.128   87.211       460.15
 326.620   65.537  101.746       458.99
 341.089   47.048  202.371       458.43
 180.259   35.439  226.170       450.53
  60.807   95.820  359.034       449.54
  36.795  145.266  310.886       447.74
 334.868   38.292   19.401       432.01
 197.687  155.817  162.317       430.41
 351.129  138.607  318.490       429.84
 108.698   54.506  312.914       425.07
 149.517   30.692   80.187       421.77
 183.304   43.918  239.347       421.21
 189.697  164.972  161.982       420.89
 246.203   76.695   57.865       418.30
 207.872  129.882  171.214       414.83
 291.093   45.422   49.884       408.91
 340.018   97.936   18.710       400.93
 179.838   18.984  215.337       400.39
 352.004  148.052  348.288       391.44
 225.507  159.564  249.789       390.78
 341.330   27.693  242.022       377.59
  32.291  154.202  330.518       376.72
 104.692   74.330  298.672       376.14
  45.953  123.492  325.383       374.12
  13.864  104.085   28.727       372.03
