TEXTURE AT STRAIN = 0
1.0   1.0   1.0
DISCRETE TEXTURE FROM ODF FILE VPSC_Texture\RD_EBSD_Initial.TEX
B 1318
  12.019  159.847  218.171      1245.34
 301.930  144.051  194.707      1060.88
 260.000   29.189  134.560       970.81
 100.483   21.825  224.130       916.25
 277.801  154.055  101.642       876.42
 120.353   27.269  256.335       832.25
  87.541  166.115   19.814       794.72
 151.527   25.621  168.678       790.68
  19.456   37.508   58.845       789.82
 157.111   24.533  247.402       775.96
  87.851   30.825  290.737       725.87
 107.589  130.760   97.849       691.95
 120.635   13.786  325.985       688.49
 167.518  164.522  276.274       664.24
  93.065  151.850  110.908       657.31
 291.888  145.801  137.339       644.32
 356.222   33.880   49.686       639.99
 341.779  147.803  170.114       637.68
 275.701  149.211   90.963       627.87
 286.712   22.529  102.542       592.94
 224.787  145.531  346.890       575.91
 329.721   27.447   38.100       574.17
  16.793  149.878  219.514       571.29
  38.219  153.143  209.662       543.00
  46.171  141.247   84.543       538.67
  58.322  144.741  264.587       518.32
 286.276   44.113  259.011       514.71
  85.928   28.848  313.839       511.82
 139.557  172.600  322.163       511.82
  90.254   39.147    6.145       507.55
  87.904  144.210  283.550       504.89
  48.094   35.377   20.816       502.44
 342.322   34.925   60.243       501.43
 198.483  157.594  297.999       498.83
 344.145  166.346  177.108       496.23
 341.668  151.715  208.981       490.17
 277.404   40.259   87.868       485.84
 314.773  137.791  210.894       467.65
 235.734   38.689  306.454       459.86
  59.313   25.143  306.017       456.40
 303.580   42.943   74.618       454.37
 331.543   28.967   27.355       452.07
 225.576   54.962  318.288       451.78
  48.737  145.816  203.684       447.30
 336.893  147.093  199.609       444.27
 299.487   17.676   72.251       440.81
 209.495  150.522  290.875       439.94
  50.052   36.666    6.439       439.94
 236.515   28.947  124.894       433.01
 192.081  147.618  198.802       430.41
  18.841   31.161   23.123       429.55
 326.834  150.293  158.026       426.59
 195.741   40.133  166.281       426.08
  11.072  142.269  231.115       422.62
 300.780   28.700   73.837       421.75
 168.721  161.372  174.785       419.16
 233.253   15.485   55.746       417.42
  72.753  156.164  280.302       416.56
 203.895   46.056  165.813       403.57
 199.186   35.926  171.884       403.57
 319.556   16.370   74.041       401.84
   0.654   26.718   52.524       400.10
 319.717  147.554  147.289       399.24
 303.439   19.920   63.973       395.77
 337.527  150.340  178.361       395.77
  73.743   20.832  340.353       395.70
 215.201   42.464  261.731       391.44
  28.762   33.390   33.347       391.44
 294.271   19.039   76.713       390.72
 248.236   21.235  113.012       389.71
 242.361   35.680  327.743       387.11
 107.458   26.858  277.780       385.38
  68.725  136.365  270.358       383.07
  53.096   38.717   13.882       380.19
 307.676   14.576   81.907       379.32
 331.594   39.150   68.325       377.59
 309.455  155.453  153.020       374.99
  32.792  157.355  234.042       374.12
 220.777   18.093  214.346       373.40
 185.743   21.032  208.363       373.26
 351.683  151.224  239.770       373.26
  44.598  152.149   81.332       372.39
  75.933    0.888  309.973       368.93
 203.473   23.528  180.031       368.06
 293.891   34.114   59.420       365.46
 121.204  145.506  121.430       363.44
 242.477  147.648   98.382       363.15
 183.547   27.421  185.557       362.00
 134.585   26.792  262.296       360.27
 220.951  149.506   97.789       360.27
 317.451  139.649  155.422       360.12
 161.428   19.244  226.704       359.40
  24.352  158.701  204.581       358.54
 337.421   24.386   68.259       357.60
 336.029   44.449   68.778       355.07
 300.036  138.915   92.983       354.78
 323.000  142.567  163.979       353.92
 140.562  148.073  166.564       352.47
  28.059   30.357   43.042       351.90
 118.559   16.636  315.008       349.01
  96.083  148.776  259.898       342.08
 147.216   33.505  166.636       341.21
 256.473  145.173   86.035       341.21
 346.229   29.090   31.994       340.78
 353.946  140.855  224.688       338.62
  44.911  143.832  215.837       338.54
 111.004   22.414  306.375       337.75
 286.221  140.720   89.044       336.45
  27.285  149.760  211.796       333.42
 259.132  150.327  114.015       332.55
  21.196   36.609   54.128       328.22
 101.665   30.319  353.648       324.76
  52.136  159.975  239.375       322.16
  92.447  172.611  287.631       321.30
 332.419  139.648  204.292       319.85
  93.483   25.624  292.411       319.56
  74.192   45.531  227.622       315.23
 353.778   30.698   31.324       315.23
 137.280   32.555  288.394       314.37
 284.114   29.691   94.657       312.64
  88.222   39.664    8.855       307.44
  96.349   58.208  178.517       307.44
 277.758  150.274  162.030       304.84
   5.809  149.871  219.735       304.84
  75.377   43.151  354.133       303.83
 295.567   32.606   70.047       302.24
 150.363  148.050   90.418       302.24
   4.144  145.947  211.811       301.38
  53.596  136.412  238.305       299.64
  17.164  152.190  234.231       290.98
 351.865   28.052    3.737       290.98
  76.461   15.843  279.964       290.12
 337.498  135.157  179.462       288.39
 146.766  147.601  286.022       286.65
 285.267   45.433   79.371       284.92
   0.887  149.302  222.189       280.59
  51.717  163.994  250.680       279.73
 219.759   34.502  246.223       278.86
 219.978   36.652  162.401       278.57
 164.203  138.009  170.933       277.99
 159.598   19.656  189.616       275.40
 349.030   52.359   19.743       273.66
 191.054   29.018  145.690       273.66
 234.541   47.173  297.397       271.64
 101.741   20.214  262.253       269.33
 326.706  156.602  151.615       267.60
  88.298  138.732  258.753       264.14
 131.247  131.973   76.716       263.27
 336.168   38.956   65.682       263.27
  19.786   51.896   15.290       262.84
 341.177   28.730    1.595       262.26
  23.742  116.045  208.320       261.54
 157.776  134.434  142.210       260.82
 215.697  164.741  217.267       260.67
 146.765  153.614  295.787       260.67
  17.666  155.422  208.114       260.67
  59.141  168.393  244.016       259.81
 265.896  150.811   53.084       259.81
  13.461  132.321  214.167       258.08
  76.222  148.963  271.124       257.21
  71.698  148.648   70.939       257.21
 326.595  141.636  196.582       256.34
 221.624   18.482  187.841       255.48
 218.510   87.941  155.450       255.48
  55.026  140.325  248.675       253.75
 195.267   31.036  170.816       249.42
 144.334  150.710  287.058       246.82
  31.747  145.215  237.809       245.95
 343.491  149.584  230.116       245.95
 119.028  157.495  121.263       245.95
 113.471  137.415  114.151       245.09
 347.054  141.208  233.496       241.62
 303.310   18.938  147.113       239.89
 220.482  171.513  220.168       239.89
 191.207   12.420  168.790       238.16
  47.918  149.114  226.179       237.29
 117.371  155.231  128.740       237.29
 104.267   24.157  347.357       236.57
 234.169   41.320  299.054       236.43
 292.483  149.544  183.953       236.42
 322.317   43.591   69.708       235.56
 159.554  152.988  156.978       235.56
  70.690   20.431  328.783       234.84
 265.768   29.507  275.919       234.69
 264.533   17.930  111.403       232.96
   1.227   19.512   31.410       232.82
  60.809   27.346  348.685       232.09
  27.118   29.683  334.571       231.23
  32.376   21.632   43.788       231.23
 341.813   23.249   19.584       230.36
 216.058  143.604  349.670       230.07
 189.370   31.855  297.096       228.63
 333.324  143.619  151.381       228.63
 328.405   34.035   96.641       228.49
 305.277  159.202  134.897       227.76
 348.571   39.999   56.214       227.76
  17.526  138.583  212.461       226.90
 263.197  151.977   99.562       226.18
 272.569  148.171   27.504       225.17
  84.230   37.486    6.127       223.43
 353.525  145.887  230.748       223.43
  47.276   23.272  330.590       223.43
 306.487   32.784   93.574       222.57
 294.483   23.345   96.325       221.99
 335.137   19.214   61.842       221.70
  44.575   39.103   11.124       221.70
  12.598   31.910   52.602       220.11
 186.575   31.462  181.425       218.24
 307.086  138.990  156.409       217.37
  49.183   27.848  335.922       213.04
  61.443   26.745  344.346       212.46
 357.529  137.361  224.782       212.18
  25.913  155.092  236.100       211.31
  78.077  152.070   50.720       211.31
  68.638   13.027   19.386       211.31
  21.711  139.294  216.331       206.98
  70.136   43.572   12.695       206.98
 319.210  153.826  151.328       204.38
 174.869   37.327  201.427       204.38
  12.648   34.778   53.872       204.38
  10.017  144.757  233.333       202.65
 213.925   26.472  281.996       202.65
  54.914   18.552  347.092       201.78
 305.331  146.015  130.531       201.78
 219.845  151.018  220.305       201.78
  40.815  142.171   70.655       199.19
 247.942   23.365   37.739       198.32
  19.421   35.039   33.185       197.45
 185.089   29.094  169.213       197.45
  72.243   14.796  340.924       195.72
 221.295   32.479  108.969       195.72
 357.437  174.853  190.332       193.41
 155.275  145.115   89.052       193.12
 240.283  130.755   21.173       193.12
 174.064   35.113  198.089       190.53
   4.303  154.766  189.496       189.66
 237.345  149.607  349.553       188.79
   4.700    6.641   11.602       188.79
 267.608  135.064    1.533       186.77
 356.065   33.109   60.310       186.20
 196.264  149.213  183.800       185.33
 269.636  147.817   63.282       184.46
 181.628   46.793  295.473       183.60
 130.185  151.734  128.996       182.73
 214.247   32.964  104.117       182.73
 193.473  144.988  344.954       181.00
 344.986   26.550   66.209       181.00
 175.332  137.537  194.034       181.00
 292.559   24.509  104.208       181.00
 284.309   51.713   76.484       180.71
 254.547   16.902  119.590       180.13
  50.681  151.775  262.325       180.13
 335.346  151.298  242.075       179.27
 113.961  152.403   18.093       178.69
   7.461  149.221  235.068       178.40
 178.618   25.937  195.358       178.40
  76.583  147.402  276.194       177.54
 348.689  139.708  179.358       177.54
 111.678   41.985  339.531       176.96
 220.172   39.595  307.700       176.67
 157.195  135.925  303.937       175.80
 353.619  139.711  218.403       175.80
 359.822   30.774   40.543       175.23
 328.156   38.545   68.357       174.94
 200.245  158.388  346.397       174.79
 128.937  135.901  153.166       174.07
 118.456   24.825  249.266       173.35
 346.872   25.115   61.212       173.21
 227.223  150.469  140.442       173.20
 255.951   37.313  310.003       172.34
 125.959  134.382  139.889       171.47
  81.005   31.658  301.619       171.47
 305.803  162.486  183.372       171.47
   8.902   45.280   42.276       170.61
   6.849   20.240   30.934       169.74
  37.665   32.966   14.902       169.74
 297.769  137.889   40.534       168.88
 114.815   18.247  252.182       168.88
 214.429   28.866  165.969       168.87
  18.776  151.046  205.382       168.87
 159.138  155.786  122.306       168.87
  88.428  142.907   76.551       168.87
 357.631  151.165  228.190       167.14
 205.796  148.361  337.057       167.14
 113.287  134.434   76.886       167.14
   5.258  156.983  195.186       166.28
 351.724   40.449   23.772       166.28
 351.854   21.382   63.404       166.28
  82.534  145.652  240.509       166.28
 111.011   19.135  307.168       165.41
 301.834  148.882  193.094       165.41
 320.651   19.953  110.526       165.41
  58.524   45.015   22.940       164.54
 178.444   10.418  210.843       162.81
 179.559  148.771  155.520       162.81
 174.993   14.749  239.297       162.81
 167.392   21.827  189.898       162.81
 303.631   32.336   71.941       161.95
 204.487  123.693  345.285       161.95
 337.657   51.721   82.769       161.95
 201.519   67.323  158.655       161.08
   5.553  135.791  218.415       161.08
 171.574   20.279  168.292       161.08
 267.661   42.790  116.940       161.08
  81.491   14.749   12.878       161.08
 329.906   28.681   37.419       160.21
 268.915  156.252  150.586       160.21
  88.621   23.143  331.152       159.35
  77.873  167.967  243.795       159.35
 162.281   48.289  270.290       159.35
  79.938   26.959  256.062       159.35
 161.979  157.936  313.269       159.35
 338.894   32.165   61.630       159.35
  98.280   41.146  336.542       158.48
 157.849  158.567  121.542       158.48
 289.589   28.250   83.631       158.19
   2.936   44.904   30.674       157.62
 313.720  145.699  167.055       157.62
 186.754   20.094  192.303       156.75
 249.438  149.782  159.083       156.75
  15.724  157.899  186.896       156.75
 138.131  138.032  133.525       155.88
 244.874   87.233  284.341       155.02
  86.683  148.476  249.830       154.15
 266.586  156.306    9.073       154.15
 179.361  161.267   32.632       154.15
 201.831   30.931  171.881       153.29
 134.838  141.347  284.243       153.29
 330.846   31.407   69.180       153.29
 147.770   23.523  172.196       152.42
 253.510  169.671   40.875       151.55
 267.560  145.777  261.497       151.55
 260.497   31.240  129.409       151.55
  93.208  159.760  136.696       150.69
  90.159  160.449  306.068       150.26
 304.754   39.694  241.132       149.82
 284.544   64.593  262.328       148.96
  60.472  148.484   72.763       148.96
 163.142  149.949  309.668       148.96
 339.189   52.188   71.886       148.81
 321.988  157.054  179.563       148.09
 239.905  163.502   80.080       148.09
 152.785  143.585  112.155       148.09
 257.981   30.965  291.012       148.09
 326.904  144.526  216.608       148.09
 352.729   30.134   13.772       147.22
  24.871   53.507   22.451       147.22
  28.474   34.282    3.401       146.36
 258.588   17.523  105.213       146.36
 170.703  147.522  161.413       146.36
 114.581  153.494   78.146       146.36
 196.306   56.485  285.477       145.78
 351.729   28.810   19.007       145.49
 259.249  164.690  108.565       144.63
 280.787  142.334   98.603       143.76
  25.793  139.259  210.422       142.89
 145.217   43.297  324.159       142.32
  47.385  139.412   60.587       142.03
   4.787   35.082   42.270       142.03
 324.895  150.943  207.284       142.03
 305.207  154.000  138.436       142.03
 346.832   25.146   70.456       142.03
  52.051   30.043  353.970       141.74
 255.387   27.915  259.465       141.16
  76.035  152.492  100.784       141.16
 173.678   27.911  176.569       139.43
 348.155   14.624   65.599       139.43
 128.509  138.099  143.704       139.43
 273.190   29.582  100.480       138.56
 198.328   20.396  104.535       138.56
 106.790  141.878  110.942       138.56
 306.539   30.232   86.759       138.56
 170.786   45.551  174.266       137.70
 209.592   28.809  116.403       136.83
 318.855  130.493  192.699       136.83
  14.682  150.795  205.152       136.83
  51.455  157.717  253.342       136.83
  81.782   46.313   46.058       136.83
 111.525  158.794   48.598       136.83
  82.941  115.743   88.484       135.97
  25.329   36.135   34.878       135.97
 280.319   25.462  132.607       135.97
 122.644  156.900  268.998       135.97
  52.271  153.276  220.879       135.10
 194.019  143.728  167.876       135.10
 359.238  157.008  202.218       135.10
  39.958   28.518  345.847       134.23
 352.048   12.780   77.432       134.23
 286.428  140.629  155.090       134.23
 331.869  135.406  148.455       133.35
 247.955   51.750  317.958       132.50
  26.921   31.931   41.769       132.50
 345.249  138.839  216.339       132.50
  48.228   39.406   32.238       131.64
 311.312   45.204  115.547       131.64
  26.874   32.465   50.726       131.64
  40.781   30.162  345.155       130.77
 179.029   26.135  166.692       129.90
 165.870   24.456  191.967       129.90
 143.933   26.937  136.348       129.90
 207.694  175.907   27.487       129.90
 279.211  128.012  189.808       129.90
 156.180   38.896  279.924       129.90
 268.555  149.016  114.870       129.04
 315.539  157.381  174.526       129.04
 143.471   39.376  261.636       129.04
 304.232  141.214  192.292       128.60
 337.889   26.301   40.100       128.17
  72.454   39.178    6.423       128.17
 112.290   32.727  159.800       128.17
 356.362   36.754   62.498       126.73
 211.222  151.272  152.595       126.44
 294.287  177.619  130.766       126.44
 319.331   19.945   13.465       125.57
 334.201   26.316   88.578       125.57
   5.598   34.839   40.025       125.14
 331.333  155.918  228.343       124.71
 224.094   36.977  123.461       124.56
 358.240   32.941   41.919       124.42
 277.539  143.516  173.067       123.84
 213.541   23.804  139.822       123.84
  80.759  147.760  115.316       123.84
  17.200  146.547  217.035       123.84
 122.248  148.595  128.871       122.98
 120.501  151.734  266.491       122.98
 136.356   22.513  300.823       122.98
 166.673   41.789  161.645       122.11
  52.200   44.551   18.607       122.11
  71.883   22.125  329.550       121.24
  43.535   34.224  335.197       121.24
  40.998   38.631   38.936       121.24
 256.888   53.941  299.204       121.24
 196.664   44.842  154.277       120.52
   4.674   22.230   44.268       120.38
 265.850  141.264  168.085       120.38
 356.282  139.879  234.994       120.38
 328.011   20.199   53.137       119.51
  98.824  140.925  270.564       119.51
 178.310   29.127  183.835       118.65
 334.490  144.904  206.466       118.65
 275.516   32.458  141.877       117.78
 172.574  142.701  292.070       116.91
  57.017  154.257  269.601       116.91
 153.821    6.439  242.763       116.91
 270.503   26.804  118.808       116.91
 283.608  147.054  111.140       116.34
 231.622   39.524  128.276       116.05
 126.640  139.097  139.699       115.18
 353.501  146.223  210.821       115.18
 120.287  150.716  125.229       115.18
   5.324   28.116   27.818       114.75
 309.154   34.858   79.610       113.45
  26.169   26.239   34.243       113.45
 340.383  140.365  183.815       113.45
 259.752  150.608  176.187       113.45
 123.454  136.101  114.616       113.45
 200.562  144.862  340.102       112.58
 122.587   33.229  243.723       112.58
 157.918  144.043  121.158       112.58
  32.592  141.344  260.313       111.72
 105.692   32.559  254.030       111.72
 344.984    5.711   35.152       111.72
  28.759   39.181   28.764       111.72
 181.236   29.081  289.583       110.85
  82.025  145.573  249.838       110.85
 167.923  141.907  135.125       110.85
 183.788  142.095   73.983       109.99
 145.006   24.560  266.410       109.99
 270.637   42.549  110.102       109.99
 287.432   44.694  165.912       109.99
 357.625  147.146  223.713       109.99
 151.753   77.493  160.154       109.99
 141.892   29.841  232.137       109.12
  11.090   52.222   38.606       109.12
 273.022   14.365  126.838       109.12
  84.544  131.972  277.276       108.25
 330.393  145.737  157.650       108.25
 300.554   24.859  103.161       108.25
 347.891  160.728  251.911       108.25
  25.154   54.145   28.254       108.25
  40.352  148.372  235.215       108.25
  21.494  146.630  212.771       107.39
 143.707  145.130  133.843       107.39
 131.039  124.841  130.084       107.39
 257.569   38.248  132.493       106.52
  68.459   33.692    7.385       106.52
 351.174   10.632   12.616       106.52
 274.163   31.227   87.595       105.66
 132.063  127.609  141.251       105.66
 185.894   30.920  188.378       105.66
   4.665   29.559   23.547       105.66
 315.242  149.613  133.111       105.37
 250.994  158.111    7.887       104.79
 111.352   14.781  277.938       104.79
 318.091  148.610  205.365       104.79
 134.529   25.971  179.948       104.79
 284.742  154.431  124.414       103.06
