TEXTURE AT STRAIN = 0
1.0   1.0   1.0
DISCRETE TEXTURE FROM ODF FILE ND_625C_20
B 3377
 164.649   41.370  312.604      2592.12
 359.143   65.017  299.253      2053.34
 172.495   69.150   87.451      1969.71
 285.488   15.719   89.738      1894.80
 170.294  123.028  298.011      1806.09
 309.753   12.343  158.225      1791.07
 172.258   91.804  325.155      1743.02
 173.218   59.066  273.579      1729.08
 195.301  118.821  321.268      1537.12
 345.511   23.859  250.433      1415.82
 171.922   47.431  318.901      1409.71
 352.057   45.160  346.929      1315.73
   8.585   74.311  321.890      1308.27
   4.935  135.474   37.636      1258.01
 246.472   23.591  342.762      1255.84
 167.441   89.650   77.650      1252.70
 160.515   27.927  275.203      1214.16
 172.288  141.312  327.549      1209.69
 184.459  140.751  322.183      1193.16
 277.891  156.508  354.949      1191.84
 184.629   49.078  316.103      1162.32
 164.953   64.056   78.321      1156.68
 197.260   99.198   22.421      1105.12
 347.241   70.892  227.991      1070.83
 349.275   78.207  274.865      1058.89
  16.896   45.966  310.784      1011.23
 186.407   71.131   19.973      1006.69
 197.321  143.290  224.794       998.10
 184.997   29.803  155.317       990.70
 197.469   95.023  336.095       984.34
 217.194    9.094  274.300       975.00
 178.622   49.508  282.194       971.46
 171.504   92.381   24.953       969.63
  93.415  162.397  210.930       951.50
   3.728   70.571  162.285       934.33
 231.358   24.525  236.354       933.08
 110.557   17.300  183.488       913.56
 121.200   36.804   44.210       857.09
 192.852   86.971  329.872       823.01
 352.406   96.825  266.382       820.50
  82.139   22.980   60.919       810.03
 358.523   43.615  121.925       804.74
 190.048   38.769   78.024       801.40
  10.994  140.904  138.222       799.38
 359.176   82.288   32.844       799.16
 168.888  101.169  263.415       782.89
 206.579  133.168  321.141       780.53
 357.421  100.888  321.574       742.31
 169.191  140.124  305.462       737.54
 354.662   51.293  321.076       737.48
 176.611   92.845   86.425       726.57
 190.748   34.324  355.692       718.13
 185.426   92.456  320.398       704.01
 356.225  145.564   86.282       698.97
 191.089   98.712   98.199       688.82
 191.593  132.017    4.784       677.72
   5.757  151.607  206.318       661.78
 187.572   41.847  343.773       661.69
 116.573  154.947  227.031       655.56
 161.187   33.999  275.201       649.37
 357.587   57.750  174.748       648.50
  15.594  154.116  115.807       647.50
 179.252  111.194  318.646       643.25
 177.126  151.968  317.820       639.69
  14.426   41.186  115.255       630.70
 149.564  149.975  325.698       626.43
 335.382  138.896   30.177       622.19
 199.373  157.612  318.630       613.75
 190.289  105.968  319.985       612.19
   0.793  102.117  264.780       605.70
 265.837   17.939  342.836       600.91
 180.152   89.283  274.235       588.65
 329.556   11.850  157.696       582.40
 171.099  112.619   62.448       576.70
   0.994  142.657   88.486       573.02
  10.252  154.529   95.829       568.74
 331.189   14.892  146.563       566.17
 188.002  116.672  358.328       560.53
 317.943  159.219  260.144       559.76
 160.897  143.789  336.535       552.42
 178.537  149.425  343.555       552.12
 262.001  165.294   32.382       549.50
 316.356  163.671  332.386       546.39
 353.271   45.094  294.179       541.41
 356.884  146.181   74.585       540.46
 188.009  122.526  337.869       536.04
 334.286  142.997   20.947       529.30
 174.726   95.537   29.973       528.36
   3.135   53.454  329.503       525.91
 138.018   31.548  335.404       523.74
 190.032  141.984  309.312       522.19
 192.774  122.375  333.030       515.68
 351.153  102.133  247.813       513.98
 348.584   81.871  209.727       512.37
 189.299   99.308   34.619       506.50
 359.097   66.624  315.220       506.40
 186.083   40.211  102.886       506.16
 208.126  155.630  338.743       504.50
 200.851   94.545  316.720       504.30
 179.010   88.924   39.912       501.25
 169.767   78.383   88.781       499.65
   1.970  104.290  280.939       496.75
 203.970  142.363  302.660       480.58
   6.110   34.758  278.915       477.70
  71.211   20.572  355.777       477.60
 104.389   20.103   70.959       477.38
 190.915   97.009  295.089       473.38
 158.643   39.963  333.613       471.89
  10.157   83.099  273.725       469.40
 188.295   81.994   57.172       465.50
 189.899   77.122  332.650       465.44
 182.290   73.529   90.769       463.32
 180.094  136.069  285.559       457.24
  87.762   32.544   78.340       455.75
 251.683   73.224  353.532       455.38
 286.479   23.652    9.688       452.25
 277.609   29.336  323.944       450.02
 174.314  114.054  268.383       440.60
 182.563   21.479  164.285       440.00
 187.773  119.679  318.133       439.25
   6.181   42.847  314.840       438.44
 179.936   81.876   89.542       435.54
 359.280   40.494  332.209       433.48
 352.440   58.933  168.129       432.53
 283.876  160.669   26.257       430.75
 259.965  157.980   30.544       429.56
  34.461  156.995  183.930       428.69
 188.170   84.852   98.102       424.91
 349.690  139.617   60.625       424.05
  27.520   35.252   87.509       423.69
 183.463   37.017  198.362       423.13
 194.471   91.690  282.023       422.81
 352.407   74.860  211.189       421.66
 180.429  106.483   29.083       421.44
 187.074   86.277  105.294       420.31
 350.979   47.564   79.414       419.76
 325.210   96.209  325.454       418.94
   1.136  143.433  340.214       415.22
 188.115  141.037  347.139       412.39
 119.592  172.505  249.415       411.37
  86.663  156.511  193.915       411.22
 168.257   83.819   55.666       408.75
 167.900   78.052   72.168       408.37
 355.155  151.533  346.091       403.42
   3.055  140.511   21.120       402.42
 168.145   96.653  334.877       400.62
 189.839  146.640  282.962       397.75
   6.668  152.612   87.808       395.59
 358.215   77.271  216.102       394.75
 158.440  122.771  306.325       393.52
 118.023   11.503    0.173       393.49
 187.313   90.870  323.142       393.40
 188.086  137.007  315.565       393.03
 345.095  164.295  321.785       392.97
 170.764   41.344  249.142       389.54
 197.253  139.113  347.120       388.89
   5.418  175.571  109.489       388.03
 181.197   86.645   89.498       385.02
 183.505   94.055  322.029       383.20
 287.516   25.120  185.773       382.44
 350.379  109.623  271.213       382.13
   3.582   40.291  110.779       379.16
 167.515  101.039  206.470       378.23
  65.567  156.804  249.863       371.54
 349.895  103.277  140.407       369.25
 151.872  156.051  259.380       367.96
 201.749  132.976  330.592       364.83
  91.778   26.536  273.569       361.53
 246.459   24.070    7.526       361.50
 185.060   54.216   76.109       359.72
   9.216  104.025  103.088       359.65
   8.269  102.830  231.275       356.13
  12.872  143.856  143.916       355.89
 119.904   13.590  357.825       354.29
   0.123  137.580  312.602       353.22
   8.703   40.225  288.345       352.00
   4.482  124.515   54.705       351.30
 194.145   28.674  242.997       349.09
 183.399   63.563  291.544       339.06
  10.711   42.978  338.161       338.76
 298.968   22.055   50.009       337.41
 186.232  131.487  327.024       336.26
 168.577  150.386  321.892       332.50
   6.011   43.783  136.972       331.52
 275.243   69.791    4.634       330.34
 350.132   90.728  280.065       325.81
 241.668   79.290  357.098       325.41
  40.162   37.651    2.711       325.17
 179.123   73.250   66.878       319.35
  65.668  158.333   52.985       318.25
 189.078  135.175  312.270       317.85
  23.088   48.836  289.939       315.81
 183.999   85.638  330.168       314.75
 105.509  155.018   86.099       313.75
  25.535   25.847  292.842       313.52
 358.293   38.197  267.730       312.77
 357.395   83.188  317.878       312.75
 172.560  146.772  288.591       310.36
  63.749   31.616  300.660       310.24
  30.673   31.534   84.208       308.31
 221.110   30.790  124.369       307.87
 171.297   86.360   95.908       306.87
 322.842  147.194   31.069       303.26
   7.004   45.103   44.651       302.95
 203.990  135.541  348.022       302.61
  15.084   37.784  134.972       301.87
 129.448  164.224  190.566       301.81
  32.069   66.063   95.924       301.50
 125.296   24.308  195.806       301.50
 270.788   18.009  336.950       299.63
 358.102   59.865  151.672       298.51
 187.738  136.426  336.002       297.37
 168.115   36.899  271.916       295.94
 179.295   96.443  312.523       293.55
  12.108   24.750  146.403       292.75
 189.788   30.906  240.509       292.73
 188.210   29.817   87.694       292.22
  92.943   26.277  333.924       291.81
 259.309  158.361   29.359       290.75
 143.546  163.025  264.355       290.25
   1.101   46.502  295.368       290.03
 189.920  141.241  324.798       289.62
  28.603   38.058   84.561       284.96
 221.880   12.013  261.832       283.44
 316.441   98.073  353.399       283.15
 358.960  103.204  251.586       281.91
 189.767   25.387  201.620       281.71
 315.613   13.570  174.327       281.00
   6.089  108.566  279.691       280.53
 232.704  160.908  338.801       279.00
 201.427   22.673  266.428       276.10
 350.064  126.895  326.808       275.50
 191.191   82.209  186.719       274.94
 189.173   71.332  297.319       274.84
   0.158   32.510  341.776       274.12
 179.873  130.832  343.696       274.11
 358.411  106.252  318.374       273.17
 341.140   24.684  162.429       270.67
 164.542  143.505  303.329       270.31
 358.247   83.026  219.617       269.31
 351.888   83.833  209.282       269.25
 171.285   96.453   83.814       267.69
 123.663   13.818  344.518       266.75
  12.080   87.557  258.783       264.03
 347.583   81.897  267.114       260.99
 322.824   33.029  306.600       260.95
 192.184   24.046  310.935       260.05
 348.911  134.811  215.912       258.89
 357.521   56.186   12.585       258.16
  97.615   25.180   57.272       257.32
  93.996  106.602   72.410       256.41
 175.235  105.683  316.881       256.31
 349.977  159.927  279.255       256.09
 325.220   13.009  152.592       255.85
 258.412  160.111  355.303       254.37
 300.628    8.781   18.514       251.41
 339.063   42.712  334.534       249.50
 192.896   65.031  312.974       249.41
   9.080   84.481  267.586       249.16
 195.348  151.898  326.025       248.24
 183.540   84.699   88.731       247.00
  63.222  156.054  274.919       246.52
 181.953   89.802  278.886       245.79
 351.796  111.042  216.006       245.30
 162.567   39.634   20.687       243.35
 155.006   39.955  352.921       243.25
 181.456   85.262  326.676       242.34
 190.073   96.354  333.398       239.94
 195.328   98.203  296.067       239.84
   3.661  102.423  277.258       239.50
 172.644  137.033  290.602       238.76
  42.692    7.248  100.849       237.93
   5.575  158.871  144.894       237.91
  14.400  172.199  119.074       236.81
 211.742  146.270  337.338       236.73
  80.364   11.105  334.232       236.25
 171.880   55.402  306.930       235.25
 136.102   83.615   67.062       234.29
 202.885  136.815  353.922       233.31
 178.760   50.725  204.150       230.81
 158.240   23.592  170.666       229.66
 356.038   93.599  290.385       228.83
 178.486   72.504  292.395       227.25
 161.375  153.803  297.698       227.11
 170.810   94.523   86.469       226.28
 235.658   18.206  324.513       226.24
 347.902   82.254   23.203       222.69
 282.052   20.978  183.692       221.96
  12.411   93.817  265.783       221.45
  23.505   36.318  305.085       220.78
 344.283  155.438  325.677       220.72
  92.908   28.500  314.313       220.65
 204.455   75.258  317.341       219.19
 334.275   72.272  326.086       217.09
 356.150   84.874  279.511       217.06
  83.232   84.041   83.712       217.06
 179.897   26.678  282.648       215.97
 171.602   58.177    6.320       214.62
  91.471   29.347  280.419       214.50
 340.596   83.828  222.772       214.44
 186.687  106.249  304.915       214.27
 348.312  125.368  313.304       213.66
  12.146   97.610  255.921       212.69
  62.704    9.342   20.272       211.98
 353.727   90.736  223.725       211.00
 344.713   23.901  323.378       209.85
 174.713   91.011   83.545       209.01
  85.163   24.813  340.199       208.26
   2.281  152.385   27.766       207.19
 264.843  141.191  331.049       206.30
  11.299  110.626  286.138       206.17
 222.649   70.508  335.032       204.25
 219.526  159.914  290.916       204.00
 355.428  110.610  268.350       203.33
   3.319   90.611  291.343       202.56
 263.500   41.185  206.495       202.50
 177.693   26.897  280.130       202.23
  10.538   90.503  260.197       201.25
 192.983  145.142  306.785       200.48
 349.725  145.761  267.568       199.86
 136.171  149.636  284.348       199.35
 345.911  141.685    9.032       199.31
   9.638   87.752  261.200       199.25
 352.962  101.691  269.072       199.20
 253.680   26.971  320.502       198.06
 163.886  146.410  319.945       194.55
   5.031  125.941  234.340       194.30
 324.067  127.306  265.706       193.81
 183.540   87.022  207.638       193.45
  13.234   35.261  116.655       193.29
  77.924   23.263   92.233       192.81
 196.999  101.861  333.067       192.07
 243.287   21.095  222.096       191.81
 347.316   78.346  328.965       191.63
 251.860   32.914  219.301       191.50
 271.143   23.138  340.124       190.76
 199.735  133.908  340.625       190.22
 353.185   28.482  345.028       189.25
 267.545  160.483  216.120       189.09
 349.266   38.559  147.136       188.94
 198.099  161.658  316.789       188.60
 349.229  112.527  333.649       188.50
 353.967  126.931  168.253       188.47
 351.226  102.864  320.536       188.37
 175.535   88.637   85.241       188.25
  81.229  147.019   76.242       188.25
 280.881  159.566   49.336       187.69
 168.632   93.136   88.120       187.50
 359.376   99.755  263.840       187.14
 184.449  102.345   74.248       186.31
 170.629  148.069  309.098       186.16
   1.454  146.689  221.567       185.82
 181.373   53.613  262.513       185.25
   0.651  127.065  157.251       184.02
 187.392   31.798  269.030       183.88
 358.787   79.570  252.324       183.09
  16.455  178.636  163.815       182.64
 354.897  132.376  212.495       182.19
 224.957   16.008  233.904       181.55
 354.166   92.418  224.135       181.41
 170.310   39.051  339.022       180.99
  95.754   23.727  259.247       180.50
 346.504   83.430  327.527       180.05
   2.832   90.819  200.598       179.66
 100.620   34.738   79.655       179.63
 197.688  126.260   60.603       179.25
 127.225   27.797  293.996       179.00
 343.883  102.028  282.096       178.35
 345.584   83.947  156.865       178.25
 179.476   36.548   22.729       177.58
 344.253  134.534   10.954       177.45
 189.824   57.678  340.827       176.44
 187.094   43.476   76.479       176.06
 172.804   60.957   80.904       175.83
 357.574   31.750  342.998       175.75
  33.604   20.331   60.196       175.54
  63.276   28.708   38.448       175.31
 207.206   73.582  331.587       174.85
 359.637  105.444  243.470       174.37
 357.475   80.750  213.457       174.06
 322.498  100.053  287.700       173.67
 343.819   25.636  299.478       173.63
  79.860   33.180   75.277       173.57
   7.230  105.335  262.940       172.62
 239.964   21.906  226.701       172.38
 265.370  149.615   42.203       171.25
 169.808  157.967  218.509       171.25
 337.962   35.679  295.500       171.19
  60.850    8.524   21.010       169.28
  13.597  110.897  270.499       169.03
 180.959   98.660  319.015       168.93
 263.371  155.767  125.907       168.75
  17.946  154.943  140.440       168.55
  73.907  147.844  257.449       167.98
 350.591   91.736  199.061       167.95
 132.495  157.827  250.001       166.82
  47.126   13.346    3.086       166.25
 187.633  107.614  334.369       165.75
 174.788   60.990   57.575       164.19
  18.256   35.428   75.896       164.00
 327.866  176.227  104.507       162.87
   9.566  170.008  174.722       162.83
   9.396   32.687  135.274       161.87
 128.083   26.729  300.827       160.92
   4.615  149.816  121.746       160.84
 116.814  153.265   98.538       159.50
 176.674   69.709   89.010       159.25
 170.243   77.420   41.050       158.77
 357.452   98.934  279.063       158.71
 197.340  142.335  358.162       158.50
   0.803   76.947  336.770       157.31
   6.428  152.383   95.319       156.66
 340.383  110.681  292.042       156.50
 188.798   87.554   61.114       156.07
 280.312   16.959  350.826       155.92
   3.216  108.560  234.075       155.75
   8.777   96.131  275.734       155.25
 144.154   95.157  298.605       154.60
 180.223   99.212   15.723       154.14
 359.351   98.100  257.349       153.54
 179.410   88.261  329.922       153.32
 182.797   99.234  205.351       153.31
 191.319   67.049   82.857       152.11
 356.611  104.522  145.040       152.00
 339.769  138.361  357.710       151.94
  59.920   83.693  219.213       151.75
 221.131  142.955  339.666       151.73
  10.151  105.367  215.926       151.04
 276.506   20.969  316.423       150.38
  13.925   29.550  125.764       150.35
   1.331   76.319  204.241       148.78
 281.308   24.209  305.329       148.50
 179.718  101.476  322.657       147.69
 352.055   75.259  224.734       147.50
 178.711   61.068   93.056       146.84
   1.649   62.412  323.968       146.71
 191.946   70.182   70.572       146.51
  10.530   76.714  274.262       146.25
 336.346  129.750  312.244       145.78
  45.252  152.575  309.696       145.70
 218.106   94.816  331.600       145.05
  97.346  147.718  204.634       144.87
 192.081  129.886  191.528       144.36
 180.857   48.934   41.150       140.74
 181.775  102.468   83.974       140.69
 173.900  146.204  312.926       140.50
 180.683   87.708  281.960       140.25
  15.482   81.888  263.736       139.87
 200.790   83.195   92.429       139.56
 188.997   51.956  329.302       139.56
 161.962   99.744   37.308       139.50
 350.952   78.410  278.893       138.81
 187.148  130.295  331.672       138.69
  37.713   18.526   25.881       135.85
  36.294  106.676  287.128       135.63
  79.147   24.163   23.655       135.25
 308.062  140.785   16.435       135.13
 156.743  157.211  326.030       134.50
  87.992   23.385  351.662       134.00
 359.030  133.329  212.794       132.85
 169.010   77.932  281.271       132.84
 192.735  142.451  346.443       132.76
   1.729   77.607  215.734       132.50
  16.528   16.849   31.531       132.41
 304.833   62.537  326.788       132.01
 287.462   97.680  198.159       132.00
 273.456  158.296   26.637       131.61
 333.814   90.875  286.696       131.41
 230.299   85.010   10.781       130.46
 201.823   83.408  332.686       129.77
 259.706   29.583  209.621       129.75
 183.710   39.116  222.711       129.60
 223.087   32.107  239.358       129.53
 168.914   34.494  267.869       129.10
 356.638  114.167  213.054       128.84
  16.302   70.764  311.915       128.75
 197.867  101.238   87.679       128.25
   5.495   87.814  275.766       128.03
   2.763  100.555  279.332       127.75
   7.151   98.923  288.949       127.75
 179.694   76.664   31.611       127.18
 298.734  164.732   57.855       126.94
 108.195   20.392   29.529       126.56
 197.803   74.249   79.862       126.34
 253.659  161.284    6.174       126.00
 300.931   37.485  193.238       125.50
 186.613  112.036  311.376       125.41
 186.671   78.327   89.524       125.02
 284.652  153.837   46.214       124.77
 182.860   72.917   89.067       124.51
 139.572   29.841   14.403       124.41
 141.376   10.578   93.994       124.34
 100.150   19.792   71.743       123.62
   0.028   91.868   86.875       123.31
 239.432  113.718  175.058       122.81
 191.297   57.356  321.045       122.41
 195.838  145.136  342.339       122.38
