TEXTURE AT STRAIN = 0
1.0   1.0   1.0
DISCRETE TEXTURE FROM ODF FILE RD_800C_initial
B 1373
 358.517  145.235  313.934    121914.72
 193.656   29.821  202.112     76859.75
 186.353   89.113  208.193     70905.83
 347.021   26.439  239.441     69087.17
 322.895   25.595  288.763     59106.23
 356.575  137.630  117.114     58759.82
 359.390   34.238  249.562     58673.22
 355.825   31.502  247.073     53303.86
 182.000   33.057  223.214     52632.69
 179.544  148.868  296.719     52286.28
 173.123  153.286  158.896     50597.53
   1.537  149.192  165.417     49731.51
 216.541  151.414   27.039     49146.94
  47.757   30.399  198.147     48172.66
 178.805   73.134  204.728     47306.63
  12.144  120.567  126.505     47176.73
 187.735  145.349  164.309     47025.18
 186.605   85.761  150.918     45509.63
 184.384  148.184   21.047     45487.98
 188.038   93.661  231.001     44297.20
  35.986   30.273  196.123     43387.87
  24.263  147.099  177.713     41980.58
   2.993   68.152  191.387     41504.27
  20.262   24.588  214.495     41222.81
 178.981   32.466  196.275     40854.75
   1.631   24.558  211.213     40681.54
 188.668   32.888  234.444     39988.72
 163.352   36.237  247.481     39469.11
 169.494   99.819  208.577     38678.86
 351.738  149.984  321.729     38646.38
  21.331  143.698  192.707     37390.64
 194.061   24.054  239.401     37130.84
 198.833   40.260  227.121     36719.47
   4.776  147.820  245.271     36676.17
 167.557  144.100  346.070     35723.55
 337.400  150.326  299.688     35615.29
 166.276  144.981  278.387     34922.47
 332.969   33.974  252.704     34619.36
  22.927  142.810  304.983     34337.91
 359.898  145.178  155.126     33298.67
  13.819  141.112  308.088     33017.22
 323.583   26.012  265.138     32930.61
  10.790   39.077  216.205     32887.31
 351.327  142.578  153.303     31393.42
   1.491   96.571  194.641     31133.61
 150.505   37.296  258.743     30614.00
 166.795   42.644  253.014     30592.35
 170.627   93.414  147.613     30310.89
 184.658   92.488  262.260     29986.13
 350.517   39.977  235.775     29964.48
 170.020   82.348  224.963     29964.48
  12.151   32.856  217.797     29726.32
  16.761  145.147  192.309     29704.67
   1.814   88.199  270.321     29531.46
 173.413   90.715  189.217     29509.81
   1.909   30.431  239.051     29206.71
 345.622   32.166  239.099     28968.55
 190.924   87.006  205.850     28643.79
   6.838   95.878  271.510     28448.93
 172.064   97.853  142.924     28448.93
  18.012   33.913  232.304     28362.33
   0.865   50.275  220.052     27886.02
 351.918  148.112  156.088     27041.64
 345.035  159.613  273.750     26955.04
 186.156   43.543  235.258     26890.09
  19.180  145.463  171.011     26868.44
 174.747   96.458   83.322     26846.79
  38.108   33.859  139.013     26825.14
 153.254   31.316  212.233     26413.77
  40.646  144.244   15.620     26197.27
 338.203   32.299  264.288     25742.60
  37.203  157.369  197.220     25720.95
 354.223   88.013   88.668     25612.70
  17.362   29.790  232.382     25526.10
 173.817   35.432  247.500     25461.15
 178.359   84.701  206.781     25352.89
 190.704   34.756  212.467     25309.59
 157.050  144.545  134.342     25244.64
 154.687   36.267  257.275     25179.69
 355.849  145.992  184.452     24984.83
 342.346   28.952  237.752     24486.87
  19.953  145.895  181.658     24421.91
  13.430   34.790  203.081     24400.26
 161.366   32.501  259.716     24378.61
 167.003  152.122  136.820     24313.66
 209.065  145.010  308.944     24010.55
 359.902   91.528  197.316     23534.24
 169.133   32.386  266.013     23534.24
 330.650   33.755  256.723     23447.64
  11.777   90.187  207.577     23404.34
 170.792   88.389  211.460     23361.03
  11.111   30.274  231.373     23296.08
   0.946   87.781  105.938     23296.08
   7.267   86.235  149.177     23209.48
 183.466   36.514  249.793     23057.93
 206.262   37.636  194.851     23036.27
  26.296  141.334  172.556     23014.62
 329.815   40.757  274.855     22841.42
 164.923  143.367  344.191     22819.77
 347.686  154.562  151.986     22819.77
 202.822   42.178  175.004     22538.31
 196.097   33.270  199.358     22495.01
 208.073   32.728  183.158     22430.06
 336.622  151.509  135.570     22386.76
   9.173   93.301  203.724     22191.90
 169.167   43.460  238.741     21953.74
 342.977   39.282  263.301     21910.44
   5.914  139.780  175.603     21845.49
 198.105  134.633  315.748     21737.24
 359.711   98.956  205.090     21607.33
 176.673   80.893  209.423     21564.03
 153.548   38.078  250.790     21434.13
  55.956   20.177   26.744     21217.62
 109.739   33.205  298.884     21044.42
 179.744   94.509  202.024     21022.77
 178.737   94.635  218.004     20979.46
 156.177  151.012  283.006     20957.81
 171.117  117.927  155.729     20936.16
 174.586  147.003  346.223     20568.10
 167.897   31.130  253.553     20459.85
 335.723  159.100  253.927     20416.55
 170.746  157.326  309.677     20329.95
 357.087   79.989  179.432     20248.15
 159.270   29.132   77.797     20243.34
 357.707  144.493  293.751     20070.14
 172.059   37.641  231.724     19940.23
 179.449   87.927  210.875     19723.73
 176.303   87.658  213.216     19680.43
  14.351  102.962   94.193     19615.47
   0.563  137.224  166.456     19593.82
 161.435  147.471  101.376     19550.52
 346.187   35.282  242.779     19507.22
 154.501   29.889   67.701     19463.92
  18.312   27.400  229.410     19334.02
 174.233   95.040  251.254     19247.41
 182.619   79.540  204.304     19182.46
 182.722  103.532   86.083     19052.56
   2.721   40.022  226.164     19030.91
 168.062   32.522  254.814     19009.26
  18.275   40.196  196.904     18944.30
 193.399   23.343  207.175     18901.00
 183.527   74.225  252.643     18857.70
 359.408   40.592  227.963     18814.40
   0.770   39.300  220.108     18706.15
 166.566  138.304  288.020     18706.15
   2.011   30.810  249.994     18662.85
   0.101   62.560  216.310     18641.20
 349.709  134.880  269.414     18489.64
  31.774  149.067   10.380     18467.99
 182.317  101.735  150.944     18467.99
 354.384   41.497  250.773     18316.44
 356.451   29.891  265.673     18099.93
  12.597  144.629  189.095     18034.98
 170.659   80.890  219.235     17926.72
 171.620  156.845  160.388     17892.44
 162.496   30.035  246.223     17883.42
 349.669  148.964  285.496     17883.42
 163.487   40.073  249.522     17818.47
 342.764   50.127  199.229     17710.22
 179.503   74.679  199.649     17623.62
 318.577  148.739  118.883     17537.01
 342.946  151.399  119.745     17537.01
 178.651  139.146  356.032     17472.06
 284.689   36.153  322.069     17407.11
 184.274   93.560  146.743     17385.46
  19.973   32.623  217.264     17385.46
 354.574   30.363  213.717     17298.86
 353.734   88.795  255.135     17233.90
 335.856   31.464  242.641     17190.60
 351.026  130.978  177.418     17147.30
 337.290  147.190  275.656     17125.65
 179.881   44.777  243.275     16909.15
 180.831   28.095  238.130     16887.49
 176.262   87.465  211.329     16865.84
 334.461   37.420  226.070     16844.19
 177.858   93.549  179.981     16822.54
  44.555   29.938  198.199     16649.34
   0.754    9.400  232.890     16627.69
 353.936  144.206  170.624     16627.69
  10.804   36.963  116.568     16606.04
  10.111   43.883  213.492     16584.39
 356.810   98.201  201.335     16562.73
 340.591  148.056  268.007     16476.13
  38.582   36.106  196.221     16454.48
 190.893  150.426   15.958     16346.23
   2.713   35.555  221.271     16324.58
   8.461   93.620  212.981     16302.93
 201.967   33.413  206.657     16259.63
 172.509  138.642  298.955     16129.72
 209.519   37.542  172.360     16108.07
  18.077  151.641  300.281     16108.07
 349.393   34.469  263.235     16064.77
 339.200   32.516  252.203     16043.12
   5.249   99.487  225.252     15978.17
 176.388  148.213  356.922     15956.52
   8.448  117.494  179.836     15869.91
 179.633  144.337  355.016     15826.61
 354.376   34.149  246.189     15812.18
 354.311   84.405  183.967     15718.36
 344.948   38.783  259.012     15675.06
 164.367  157.837  140.621     15675.06
 203.446   40.454  221.090     15653.41
 186.036   40.058  223.226     15523.50
   4.675   83.017  203.915     15523.50
 346.976   88.270  145.960     15480.20
   7.616   40.984  237.373     15371.95
 346.113   26.431  262.445     15155.44
 180.192   79.141  196.322     15133.79
 340.885   15.765  273.938     15112.14
 170.495  137.080  349.177     15112.14
 175.472  142.932  280.682     15025.54
   6.944   23.767  225.908     15003.89
  22.305  153.243  154.649     14982.24
 181.677   51.173  236.669     14982.24
   8.640   90.483  265.624     14960.59
 192.807   28.762   39.835     14960.59
 212.086  147.708  327.519     14938.94
  18.034   33.905  178.679     14917.29
 189.837   94.264  227.002     14895.64
 355.770  145.131  179.680     14873.99
 171.324   19.225  237.700     14852.33
 183.318   23.293  242.038     14830.68
  33.400   38.097  217.820     14830.68
 351.091   84.542   98.715     14787.38
 180.708   85.961  212.035     14744.08
 224.107   97.577  326.210     14700.78
 176.692   90.547  206.680     14592.53
  12.215   73.582  215.288     14570.88
 126.867   26.017  295.024     14549.23
   0.378   32.407  241.445     14549.23
 357.261  102.425  217.984     14549.23
 175.798   37.665  220.022     14505.92
  22.341   29.746  217.221     14484.27
 175.506  131.708  346.625     14462.62
 323.867   33.121  269.463     14462.62
  24.810  151.036  208.738     14397.67
 350.495   26.942  235.787     14311.07
   4.295   98.786  271.966     14289.42
 194.530  148.364  171.053     14181.17
 358.990   70.590  200.758     14137.86
 169.579  145.670  348.138     14072.91
  42.009   41.783  200.594     14072.91
 356.410   81.268  202.204     14051.26
 353.822   68.048  245.218     14007.96
 325.106   32.768  275.022     14007.96
 304.222  150.818  102.607     13943.01
 355.124  148.286  175.042     13943.01
 333.468  141.326  329.559     13921.36
 188.383  148.929  291.550     13921.36
 194.088  154.336  314.674     13834.76
  15.904   26.714  208.340     13791.45
 188.294   26.703  227.571     13769.80
 155.224  155.228  113.896     13769.80
 190.140   34.175  205.176     13748.15
 179.262   76.634  209.627     13748.15
 353.240  143.305  158.253     13683.20
   1.268   40.235  227.865     13618.25
   9.211   29.183  233.529     13466.69
 171.393   84.729  265.282     13466.69
 349.114  156.671  107.024     13445.04
 344.890   46.489  253.840     13423.39
 177.163   32.078  251.075     13401.74
 192.585   29.178  210.662     13401.74
 171.942  147.326  287.470     13380.09
   6.334  136.657  180.602     13358.44
  15.162  150.227  189.915     13358.44
  12.205   39.917  238.047     13336.79
  21.113  148.986  305.463     13315.14
 196.236   46.495  207.129     13315.14
 309.787  146.025  116.126     13293.49
   1.674   89.792  227.844     13271.84
 198.295   90.303  262.107     13271.84
  12.038  152.321  201.891     13228.54
  10.852  136.508  150.875     13206.89
  21.098   39.705  193.282     13206.89
 167.726   51.348  236.989     13206.89
 332.643   32.142  239.530     13206.89
 319.798   21.021  284.534     13185.24
   5.329   39.680  234.103     13163.59
  12.968   30.115  233.934     13141.93
 176.290   90.978   76.321     13141.93
  17.721   38.001  205.176     13120.28
 181.414   80.991  199.752     13120.28
 340.911   33.404  221.483     13076.98
 358.223   39.382  229.744     13055.33
 198.505  151.254  181.036     13055.33
 252.341   26.086    3.811     13033.68
  69.308   41.561   14.243     13033.68
 210.911   19.812  186.163     12968.73
  11.379  148.862  191.936     12947.08
 183.712   90.478  202.763     12925.43
 162.270   31.352  268.522     12925.43
 160.083   24.256  270.856     12903.78
 181.169  138.249  354.499     12882.13
 153.046   43.391  257.289     12860.48
 355.105   37.278  224.288     12860.48
 338.064  156.691  105.577     12817.18
  19.848  136.963  302.220     12795.52
   2.238   87.154  207.589     12795.52
  13.586   44.939  248.678     12795.52
 166.882   22.906  259.178     12773.87
 180.283   88.360  195.040     12752.22
 183.173  101.772  207.427     12708.92
 189.308   25.779  239.306     12708.92
 210.273   31.184   33.230     12687.27
   7.754  122.238  172.153     12687.27
 269.224  164.857   88.153     12665.62
 191.762  153.931    6.685     12600.67
  39.419  158.629  327.825     12600.67
 157.107  138.725  120.775     12600.67
 355.763   91.819  187.595     12557.37
 307.163  150.409  120.122     12535.72
 183.914   84.877  205.583     12514.07
 161.413   37.851  251.020     12514.07
 168.370  152.989  155.688     12492.42
 324.176   19.708  271.731     12492.42
 203.533   20.162   54.548     12492.42
 154.005  100.516  159.162     12405.81
  13.381   35.002  221.978     12232.61
  51.819   11.594  199.295     12232.61
 185.588   42.925  220.232     12210.96
 323.021   26.055  248.527     12210.96
 149.201   40.390  256.087     12189.31
 126.719  151.202   87.241     12189.31
   4.971   89.530  213.815     12146.01
 191.200   93.819  178.903     12102.70
  32.678   58.166  168.337     12102.70
 359.105   91.940  192.695     12059.40
 183.865   87.837  207.955     12037.75
 180.088   94.722  177.718     12037.75
 201.209   26.261   49.451     12037.75
 354.052   20.120  228.757     11972.80
 172.004   38.069  221.407     11907.85
 183.135  154.629  309.218     11886.20
   0.458   83.567  183.203     11842.90
   9.895   92.171   89.994     11842.90
  13.017  116.220  174.456     11821.25
  20.181   37.753  202.053     11821.25
  14.625  163.683  126.480     11821.25
  13.722   41.077  214.176     11799.60
  12.524  103.071  259.470     11712.99
 171.097  141.532  296.806     11604.74
  17.080  139.238  305.255     11604.74
 352.702  140.737  279.378     11583.09
 346.409   36.209  261.314     11539.79
 209.163   39.130   50.269     11539.79
 215.979  152.624  338.310     11539.79
 210.893  138.528    9.119     11496.49
 173.665  112.224    9.250     11474.84
 166.461   97.013  259.821     11474.84
 177.498   94.345  201.279     11453.19
 269.205   21.500  322.990     11431.53
   3.639   79.150  215.245     11431.53
 185.877  138.900  291.952     11409.88
 341.938  150.498  271.346     11344.93
 178.180   32.800  215.473     11301.63
 200.434   29.606  231.905     11258.33
  14.329   93.857  206.725     11258.33
 171.566   23.574  239.148     11215.03
 198.065   82.014  216.383     11215.03
 194.092   81.893  210.303     11215.03
 186.970   89.013  186.156     11193.38
 301.973   27.131  262.593     11171.73
 342.906   43.806  248.100     11150.08
 148.064   29.612  306.172     11128.43
 358.844  108.227  297.888     11085.12
 198.076  140.716  126.770     11020.17
 351.340  144.543  288.301     11020.17
  10.763   89.129  153.299     10933.57
   2.876   79.860  198.467     10911.92
 352.609  139.411  155.980     10890.27
   0.204  138.285  186.566     10890.27
   1.259   63.907  193.506     10890.27
   1.126   96.213  204.644     10868.62
 214.029   32.216   45.535     10846.97
  16.084   33.751  231.969     10825.32
 168.233  143.540  343.053     10760.37
   7.472   27.377  113.545     10738.71
  11.386  150.126  177.324     10695.41
 357.622  141.416  210.020     10673.76
 353.783   24.311  230.589     10673.76
 189.773  150.791  302.192     10673.76
 181.545   75.303  210.792     10652.11
 185.116   32.607  229.063     10652.11
 178.844   93.177  201.399     10543.86
  28.715  147.188    9.165     10522.21
 172.009   42.518  232.558     10522.21
 353.649   38.328  271.470     10522.21
 356.260   26.604  224.047     10504.17
 334.959   27.206  265.707     10500.56
 191.345   34.273   14.340     10478.91
   1.387   28.813  222.357     10435.61
  15.032   34.117  240.422     10413.95
 144.896   35.271  254.273     10392.30
 170.599  142.723  352.664     10392.30
 153.803   36.218  258.535     10392.30
  31.425   29.006  218.636     10392.30
 183.257   99.250  210.879     10370.65
 193.306   30.219  231.385     10349.00
   7.184  148.226  181.307     10349.00
 179.039   79.016  192.683     10327.35
 178.789   20.084  233.700     10327.35
   7.085  152.146  169.272     10284.05
  33.289  142.977  339.980     10284.05
  30.920   38.716  204.351     10262.40
 195.643   90.365  206.536     10262.40
  69.236  162.720   67.936     10197.45
 207.107   32.503  212.952     10197.45
 351.386   42.070  241.759     10197.45
 351.790  147.438  343.352     10197.45
 160.819   38.679  259.305     10175.80
 166.136   32.971  241.657     10175.80
 346.664   33.636  258.188     10154.15
 196.886   29.988  212.192     10110.85
 167.830  155.167  144.054     10067.54
  53.497  151.563   41.009     10045.89
 192.186  149.356  158.131     10045.89
 169.312   52.995  220.936     10045.89
 210.589   33.156   32.058     10002.59
  24.229  152.027  202.382     10002.59
 174.043   71.778  203.356      9980.94
 345.334  148.161  146.565      9980.94
   1.536   25.887  245.612      9959.29
 344.180   22.609  254.898      9959.29
 170.283   24.312  228.429      9959.29
 346.934  141.940  182.624      9894.34
 191.477   82.936  186.474      9894.34
   7.468   49.207  190.074      9851.04
 152.968   22.202   87.841      9764.44
 323.510   39.403  260.436      9750.00
  10.982   98.007  321.355      9742.79
  29.638  153.275  188.111      9677.83
 358.254  104.174  175.043      9656.18
 354.060   82.291  134.351      9656.18
 344.633  148.610  148.626      9656.18
 355.488  100.666  168.003      9634.53
 169.473   45.889  247.855      9634.53
 320.202   29.602  281.080      9591.23
 184.566   60.906  196.196      9569.58
 181.405   32.355  253.973      9547.93
 357.662   76.040  206.855      9482.98
 182.729   94.968   91.188      9482.98
   2.717  132.016  158.344      9461.33
 341.175  154.005  123.200      9439.68
 352.794   27.686  257.152      9439.68
   8.954   44.872  190.207      9353.07
 185.710   49.198  229.534      9288.12
 359.540   92.889  226.272      9288.12
 188.858  146.968  299.511      9266.47
 153.004   26.122  257.250      9266.47
  18.373  139.796  192.364      9244.82
 187.192   93.468  174.864      9223.17
   7.714   77.728  158.848      9201.52
 353.180  153.012  344.009      9179.87
 356.893   38.664  201.521      9136.57
 221.574   33.401   38.602      9122.13
 182.282   69.328  199.999      9114.92
 250.210  134.198   50.075      9049.96
 200.832   22.286  202.793      9049.96
 174.670   82.716  163.148      9049.96
 179.136   29.497  252.874      9049.96
  28.237  139.971  352.327      9028.31
 185.062   32.799  231.007      9006.66
 348.315   84.181  245.137      8985.01
 197.853   18.462  235.355      8941.71
 187.077  101.936    3.218      8941.71
  26.104  140.596  171.747      8941.71
 151.523   36.737  259.223      8920.06
   2.064   77.030  108.087      8920.06
  10.210   39.560  215.104      8898.41
   7.795  148.079  179.283      8855.11
 176.279  121.892  286.812      8855.11
 150.111  136.688  295.305      8811.81
   7.633   37.865  230.026      8811.81
 307.397  142.112  110.553      8797.37
 198.985   32.871  225.062      8790.16
 166.483  152.745  148.401      8768.51
 182.100   83.316  199.307      8768.51
  17.255   83.611  202.522      8768.51
  29.544   36.731  158.386      8725.21
 169.871  145.656  348.903      8703.55
  45.574   27.633  178.692      8681.90
 359.040  112.924  186.105      8681.90
 159.231   42.993  272.057      8660.25
 182.299   85.623  219.731      8660.25
 258.931   39.692  340.002      8638.60
   9.095   92.591  247.452      8616.95
 357.011  100.136  282.684      8616.95
 134.497   77.426  267.074      8616.95
 350.543   85.068  249.437      8595.30
 147.016   24.403  255.318      8595.30
 348.919   33.015  259.837      8573.65
   0.804   88.409  271.689      8552.00
 349.743   32.477  243.198      8508.70
 355.594   82.467  257.724      8498.60
 353.275  106.482  274.779      8487.05
 187.879   96.145  247.705      8465.40
