TEXTURE AT STRAIN = 0
1.0   1.0   1.0
DISCRETE TEXTURE FROM ODF FILE ND_800C_5
B 2456
 183.381  143.752  189.257     68310.35
 202.390   43.842   68.333     39437.06
 174.905   33.456   80.507     37181.69
   6.013   72.724  152.626     30674.91
   9.091   32.415  183.765     29349.60
 170.127   31.262  330.077     24555.28
 349.568  151.018  295.157     21680.08
 352.968   94.698   94.361     21178.65
  16.886  140.397   70.657     20620.93
 318.529  143.602  280.401     20542.99
 190.186   86.346  257.270     20045.02
 184.543   82.806   26.386     19686.92
 182.421  100.188  259.894     19662.24
 192.704  148.579  192.304     18407.51
 183.898   43.287   64.188     18397.84
 180.182   32.332  256.215     18177.01
 181.612  133.487   27.062     17958.77
 176.747   89.421   26.354     17573.39
 174.276  127.021   58.314     17388.06
 167.928  148.172  323.603     17341.44
 182.659  155.825  201.162     17274.18
 164.040   39.493  356.503     17273.74
   9.534   32.130  222.999     17191.47
 187.255  148.340  250.490     16727.28
   3.697  142.270  331.111     16483.06
 185.514   36.997   57.664     16398.19
 336.599   38.886  331.482     16055.53
 167.680  144.461   36.840     15776.38
  19.386   98.330  146.783     15646.63
  10.475   31.342  302.364     15482.80
  13.870   84.250  148.732     15166.70
  24.278   24.283  291.074     15090.04
   4.887  143.483  322.910     14392.48
 174.811  120.403  215.551     14318.00
 342.389   26.196  331.260     14306.74
 179.759   48.357   72.402     14300.82
 354.594   31.165  195.565     14283.36
 345.750  151.326  216.449     14141.62
 193.385  101.172  270.581     14034.81
  37.044   37.244  267.129     13938.68
   9.489  145.584  323.153     13896.10
 201.704   33.334   86.072     13565.42
 173.155   35.317   68.250     13565.42
  33.803  156.195  329.067     13438.12
 182.915   32.594   82.603     13272.71
 357.640   30.180  177.535     13178.31
 322.840  148.410  274.499     12700.26
 358.829  100.708  161.660     12637.04
  15.504   93.385  167.981     12265.52
 170.625   33.064  101.795     12122.62
   4.349   97.018  157.814     12029.96
 156.579   30.582   81.962     12017.88
 183.481   82.612  259.579     11806.52
 176.135   98.419  340.916     11727.72
 190.505  102.022    0.791     11591.75
 174.068   62.105  240.375     11533.29
 359.772   89.490  157.694     11487.83
 173.039   27.195   92.388     11398.68
 162.147   48.307  270.843     11248.80
 164.502  139.146   47.093     10993.61
 146.024  146.956  207.989     10943.96
 357.190   40.019  188.022     10872.08
 167.105   27.361   62.337     10778.55
 175.987   44.017  122.245     10754.30
 172.807   32.482  248.327     10750.84
 178.687   88.322  275.354     10741.31
   3.000   75.437  148.379     10722.55
  13.915   94.903  152.221     10652.98
  12.274   20.000  288.137     10567.24
 358.878   32.217  154.097     10549.63
 179.782  150.720  192.222     10541.26
   5.268  147.768   11.131     10510.37
 177.661   93.622  279.167     10464.18
   3.583   59.331  175.688     10374.12
 357.230   84.622  158.360     10317.83
 182.289   29.070  103.595     10244.21
 331.615  150.418   25.207     10226.89
 188.792  146.751  178.016     10189.65
   0.325   90.869  160.560     10071.88
  12.993  161.676  297.259      9994.22
 176.015   29.651  105.936      9988.43
 178.133  150.429  183.306      9892.61
 358.460   91.136  120.823      9881.93
 359.934   34.299  255.546      9872.69
 158.471   36.477   98.157      9827.66
 200.297   37.022   61.528      9781.76
 149.468   44.800  356.042      9678.70
  14.565   79.308  154.311      9650.12
 167.101   31.894   95.789      9523.68
  13.313  138.095  344.965      9472.59
  21.918  146.575  334.203      9398.97
 126.665   24.743   48.252      9186.08
 165.478   26.864  107.447      9071.62
 317.741  143.284  143.787      9050.83
  10.678  157.676  308.096      9041.31
   5.461   37.257  181.409      9016.19
 171.880   50.030  286.097      9004.93
   8.216   22.730  186.222      8955.86
 151.740  144.940   27.931      8924.39
 154.022  142.377  218.162      8913.13
 186.551   93.319   16.393      8896.10
 193.334   39.644  104.304      8877.91
 340.461   33.176  326.110      8851.65
 353.912   33.657  165.772      8822.20
 147.504   27.031   99.255      8814.41
 167.371  135.551  353.227      8757.25
   3.402  167.519  264.592      8539.01
   5.018   29.392  152.419      8489.65
 198.227   97.909  267.671      8479.25
   3.045   79.448  103.843      8458.47
 164.406  142.317  241.389      8451.54
 172.131  156.784  185.123      8440.72
 322.984  151.230  263.200      8299.12
 345.489  139.325  335.803      8253.22
 172.133  149.656  356.991      8077.42
 148.007   85.988  274.363      7993.41
 199.749   28.767   93.161      7980.42
 181.294  148.394  231.234      7933.66
  39.372   21.476  139.377      7860.91
   8.655  151.031  352.753      7851.96
 175.929   83.115    5.572      7840.13
 202.328   26.191   78.967      7825.41
 354.974   31.642  337.068      7797.69
 174.491   23.789   62.474      7731.87
 168.490   29.362  337.206      7713.69
 192.927  128.683  242.595      7675.58
 174.643   27.354  102.275      7675.01
   3.183   70.930  164.728      7641.81
 339.857   26.053  198.937      7640.94
  24.393  139.319  129.449      7543.23
 359.259  147.642  323.976      7480.73
 184.560   38.088   54.660      7453.01
 176.488  146.010  231.514      7432.23
 189.816   24.837  101.018      7280.68
 339.530   31.808  233.000      7245.17
 191.985   33.565   88.516      7237.37
  14.766   96.336  147.325      7235.64
 336.012  148.699  293.550      7184.55
 324.703  151.380  264.792      7149.04
 357.073  112.836  108.151      7046.85
 191.097   27.107   54.992      7028.66
 187.536   32.896  105.019      7003.55
 166.229   39.291  303.069      6989.69
 359.307  103.630  135.219      6959.81
 145.920  146.419   28.388      6919.54
 178.258   88.909  274.613      6881.44
 166.405   27.240   16.003      6859.79
 219.573  157.005  225.911      6828.61
  22.137  137.031  135.306      6822.55
  23.023   32.462  314.111      6784.44
 350.425  150.894  329.515      6752.40
 321.732   25.204  346.811      6750.67
 140.996   30.608  281.274      6668.40
 183.912   38.344  115.253      6594.06
 269.826  143.761  265.478      6553.21
 153.366  131.903  352.580      6495.19
  42.411  157.242  314.647      6424.18
 339.894   26.443  333.412      6360.09
 354.059  141.847  291.816      6360.09
 344.364  154.205  292.830      6357.49
 237.786  153.376    9.546      6346.38
 317.805   21.173  345.094      6262.52
  24.252   43.112  321.473      6262.23
   1.023   36.080  353.248      6237.98
 307.755  151.455  299.515      6190.35
 199.546  142.592  204.049      6147.05
 181.736  132.175  223.539      6035.33
 159.268  156.292  358.938      6018.88
 351.289   31.623  201.704      5997.23
 165.794   41.216   94.570      5987.70
 343.925   38.947  183.581      5979.04
 358.908   90.392  154.393      5953.06
 181.211   40.618   66.380      5925.35
 346.692   35.569  147.751      5905.72
 210.831   34.582   95.323      5791.98
 306.340  137.199  292.420      5753.87
 168.404   44.848   62.879      5744.35
 200.802   20.199   52.174      5638.69
 174.117   73.443  355.623      5638.55
 214.475   28.977   52.364      5632.63
   1.714   94.576  138.114      5632.63
 326.029   37.938  182.823      5601.45
 210.868  152.033  213.266      5598.85
 198.928   27.872  103.602      5555.55
 359.606   35.346  176.095      5546.89
 199.604   84.288  316.410      5546.03
 177.605   92.128  320.318      5544.29
 218.745   25.895   56.179      5509.65
 175.234   27.186  114.149      5499.26
   4.635   75.266  158.606      5489.73
   8.146   34.752  173.956      5488.87
 355.140   97.090   96.784      5481.07
 179.032   31.578   85.247      5442.97
 187.052  107.915   25.301      5376.29
 164.533   38.213   72.149      5374.55
 173.706   40.127   72.683      5321.73
 216.755  154.510  263.992      5305.99
 179.429  143.365  190.074      5262.84
 354.996  128.545  304.688      5244.65
 359.810   62.924  134.505      5198.75
   8.037   25.224  228.010      5157.18
 204.356   37.261   40.684      5144.19
   5.601   31.215  314.547      5129.47
 183.218   82.500  270.024      5126.00
 308.980   16.648  359.889      5110.42
 112.091   30.449   47.905      5097.43
 181.066   93.502  252.272      5074.69
 350.300   31.782  313.748      5055.86
 178.754   90.847  276.259      4983.98
 166.219   40.642  109.331      4936.34
 354.043  152.421  343.466      4897.59
 346.926   32.154   37.084      4868.79
 180.536  145.097  245.111      4844.55
 325.868   33.641   31.707      4797.78
 333.676  135.275  316.298      4772.95
 183.594   82.718  259.894      4764.01
 178.690   24.069   78.726      4737.16
 187.778  145.762   65.611      4726.77
 164.636   25.437  127.293      4712.91
 345.707   91.244  157.125      4692.13
 347.312  162.625  200.919      4645.36
 215.955   32.899   32.716      4600.33
 183.332   42.829  358.994      4516.32
 185.034   32.266   77.336      4503.33
   7.496  150.466  103.911      4460.18
  16.074   91.845  136.276      4414.42
  28.832   22.423  185.003      4413.27
 117.225  163.421  318.805      4405.47
 358.835   29.662  175.660      4395.94
 351.705   25.003  226.976      4395.94
 185.912   98.094   15.712      4391.61
 174.330   27.710   16.213      4375.16
   1.885   31.799  321.369      4367.37
 212.809  161.233  227.179      4359.57
  44.581    8.610  285.874      4353.51
 339.518   32.000  172.815      4339.65
 166.235   30.411   98.497      4314.54
 186.229  148.271  232.806      4211.26
 344.144  161.143  357.902      4195.89
 198.425   27.410  103.135      4194.16
 183.642   78.893   14.567      4179.44
   3.101   85.678  151.186      4169.91
 172.822   34.550  128.430      4168.18
  21.359  151.888  319.727      4161.25
 353.330   30.640  181.648      4125.74
 168.467   85.696  280.527      4111.04
 327.317   98.392  150.840      4108.42
 209.087  160.217  246.027      4097.17
 182.917   32.472   97.004      4088.94
  13.796  147.465  334.185      4085.04
 147.664  152.806  194.583      4051.27
 348.492  127.191   71.114      4034.38
 202.373  144.481  203.755      4027.02
 172.278   43.999  252.096      3985.74
 154.371  140.701  217.831      3983.72
 177.510  146.571  232.902      3981.98
 349.107   31.924  332.834      3974.19
 181.045   25.609  119.278      3973.32
 168.265  129.030  232.530      3965.53
 202.068   88.551   17.767      3955.14
  31.007   16.668  290.622      3945.47
 323.919  151.460  323.737      3923.96
 322.468   39.072  191.498      3923.96
 167.439   26.721  134.902      3905.77
 163.557   25.419   68.242      3895.38
  17.839  145.220   60.838      3887.59
 141.934  154.376   13.394      3879.36
 155.085  148.024  223.549      3864.21
   8.301   41.696  184.649      3859.88
 182.800  145.533   39.054      3857.28
 158.018  151.784   40.122      3846.02
 184.621  134.504  229.371      3843.28
 344.593  156.703  304.093      3840.82
   4.070   90.221  132.101      3817.01
 175.344  142.483   74.975      3815.92
 180.160   90.289  251.578      3813.98
 333.541  139.936  292.866      3808.78
 325.142  140.100  107.410      3785.18
 291.134  165.111   64.880      3759.42
  23.206  144.832   78.949      3742.96
 206.774   23.962   40.892      3739.50
 144.034   40.250   14.406      3736.03
 195.334   29.298  278.998      3736.03
 187.979  141.116   83.483      3732.93
   9.039  151.781  353.807      3716.98
   4.562  148.306  325.304      3703.99
 183.512   99.427  196.150      3700.53
  22.284   91.071  102.314      3697.06
 161.591   23.494  132.475      3680.61
  18.888   22.356  285.472      3662.42
 217.917   24.795   90.822      3657.23
   5.915  147.794  343.651      3648.56
 339.416  152.789  340.044      3639.04
   0.522   92.951  159.746      3632.30
 190.309   39.163   33.644      3616.96
 154.125   45.131  101.985      3613.06
  80.445   19.805  152.220      3604.69
 141.654  154.669   73.002      3603.53
 344.109   27.281   24.208      3574.95
 204.155  153.916  182.001      3572.35
 350.157  150.159  278.558      3568.89
 337.046   25.877  216.599      3533.38
 344.049   17.888  332.828      3527.32
 178.354   36.558   55.888      3520.25
  19.203   54.529  136.265      3507.40
   2.555  158.976  257.344      3505.96
 358.669   29.562  296.014      3504.80
 346.644  148.638  345.235      3445.92
   2.038  147.319   74.028      3441.56
 177.129  151.780  178.845      3437.25
 342.734  155.502  274.853      3423.40
 116.713  151.768   20.964      3410.41
   1.354  139.165  341.334      3406.94
 327.792   32.776  159.879      3391.36
 168.059  157.353  229.702      3354.98
  13.734  154.421   87.967      3348.92
 249.549  143.235  262.386      3304.75
 182.688   86.622  251.066      3284.83
   9.620  152.652  319.104      3279.64
 229.018  161.500  221.806      3279.57
 202.306   89.016   17.405      3254.52
  35.284   18.504  297.145      3204.29
 163.818   24.701   84.304      3176.58
 181.258   38.662   73.794      3153.20
 346.600   33.782  182.548      3141.94
 356.504  141.836    2.403      3112.93
 337.610   95.763  109.525      3074.39
 339.650  141.404  284.991      3060.53
 181.701   25.937  106.056      3045.81
   0.879  136.580  300.914      3034.26
 349.854  152.566    0.459      3020.70
   6.666  152.862  304.316      2999.05
  34.292  156.503  329.307      2998.18
 352.443   31.004  317.519      2996.45
 205.561   26.083   79.928      2996.45
 331.483   32.642  258.457      2987.79
 156.754   32.071  282.625      2973.93
  49.365   18.527  257.233      2973.93
 348.614   32.064  175.861      2965.27
 180.312  111.866  353.858      2948.82
 173.921   84.700   23.861      2930.63
 168.395   22.459  104.840      2927.31
 163.216   24.484   85.018      2926.30
 200.537   27.753   41.929      2920.24
 348.603   39.172  170.789      2913.31
 181.810   28.661  111.806      2911.58
 347.167  143.454  111.993      2903.78
 203.941  143.156  255.738      2903.78
 181.455   87.880  258.536      2865.68
 150.102   31.215   57.612      2863.08
  11.000   95.088  137.730      2850.96
  16.423  149.262  339.517      2777.34
 189.745   90.574  230.967      2773.88
   1.530   94.768  137.566      2747.90
 346.849  142.762  351.900      2713.26
 171.435   31.981  291.801      2698.54
 171.391   37.401   58.567      2693.34
  12.825  152.873    6.694      2678.62
 228.838  161.615  222.102      2650.04
 147.379   81.482  329.257      2648.31
 331.450   34.929   32.392      2643.11
   4.623   83.794  147.233      2612.80
  55.991    4.602  121.583      2603.27
  16.081   35.619  172.143      2595.48
   3.045   83.862  137.961      2593.75
  34.602  151.493    7.730      2592.01
 331.353  159.873  289.904      2573.83
  36.090   36.879  148.016      2535.72
 172.857   31.864   68.421      2533.99
  10.413  134.637  314.413      2519.27
 357.780   41.536  159.849      2510.75
 184.039   57.081   77.156      2497.62
 182.665   89.045   24.129      2493.29
 323.817   38.403  190.115      2479.43
 312.649   28.792  345.968      2434.40
 168.223   90.489  259.133      2420.54
 323.549  148.447  274.873      2411.01
 199.653   27.038  283.180      2390.09
 163.107   78.170  286.008      2384.17
   2.248   32.876  143.223      2372.04
 327.497   86.653  101.110      2356.60
 352.837   70.223  160.453      2344.33
 337.740   29.503  200.710      2335.67
 166.039   89.080  201.858      2326.29
 350.911   31.836   14.254      2305.36
 359.937   33.328  153.652      2301.90
  11.406   79.931  148.459      2281.11
 195.961   35.387   94.816      2281.11
 352.711  152.351  302.985      2244.74
 326.611   36.890  181.507      2236.94
 148.536   89.760  344.452      2236.08
  26.521   80.542  135.519      2223.09
 145.139   34.451   73.500      2222.22
 176.525  146.769  180.205      2213.56
 348.756   39.204  313.060      2210.96
 219.281   87.406  252.732      2180.80
  20.100  142.511  316.719      2174.59
 331.444  156.582  294.476      2157.27
   9.769   85.986  148.896      2147.74
 182.195  148.278   39.084      2146.01
 357.700  103.245  157.107      2144.28
 240.833   83.703   54.129      2143.41
 168.123   87.222  265.115      2142.98
 218.938   87.430   72.915      2137.35
   9.603   47.236  335.567      2129.56
 183.047   99.370  199.106      2112.24
 359.540  147.301  305.218      2101.84
 181.667   28.692   97.318      2094.05
 358.572  148.346  263.943      2090.30
 327.317   97.812  150.172      2082.79
 174.985   37.761  119.272      2078.46
  50.475   26.289  244.927      2068.07
 152.411   30.551   85.443      2063.74
  19.801   88.729  145.208      2062.87
 310.143  152.545  267.177      2051.61
 328.814   94.212   68.110      2051.61
 345.530   84.295  146.459      2045.55
 181.179   41.100   79.969      2041.22
 196.111   43.135   36.788      2033.43
 180.112   93.265   67.680      1999.65
 339.674   24.526  191.693      1981.47
   3.358   30.769  306.814      1978.87
 163.387   18.804  302.919      1978.00
 157.578   36.606   50.815      1976.27
 157.525   22.091   67.792      1965.01
  17.572   94.697  135.051      1940.76
 229.662   27.389   21.690      1932.97
 135.281  143.242  358.695      1932.97
 198.805   27.685  103.953      1917.67
 156.699   26.572   93.945      1915.65
 352.400   90.967  146.387      1913.92
   9.880   83.578  151.352      1903.52
 343.953   17.727  333.114      1902.66
 156.703   90.831   22.788      1900.49
 327.200   98.012  150.044      1899.19
 336.113   89.956  130.871      1895.73
 214.474   91.752  247.328      1887.94
 343.052  101.061  135.340      1886.20
 196.317   29.161   94.216      1881.87
 357.402  155.959  341.130      1870.90
 223.565   96.164   45.110      1858.49
 184.635  105.199  260.890      1855.89
 351.513   96.607  151.386      1855.89
 201.111   27.187  103.386      1848.10
 351.778   31.622  201.058      1848.10
 196.503  140.140  201.084      1847.38
  22.202   99.135  101.615      1840.30
 175.395   76.572  338.492      1836.84
 219.084   88.263   12.364      1834.24
 195.191   39.269   52.646      1820.39
 112.400  105.914  345.768      1793.54
 174.033   36.873  105.141      1779.68
  19.937  159.838  270.339      1774.49
  16.893  160.275  266.258      1756.30
  11.737   98.143  149.670      1751.97
 326.151   33.869  211.007      1747.64
 273.472   22.997   22.696      1744.18
   3.362   77.494  150.879      1741.58
  16.224  155.571  301.400      1738.11
 336.070  157.612  350.048      1735.51
 188.742   24.768   42.694      1729.45
 180.361   29.159   98.602      1720.79
  28.793  144.906   16.473      1719.93
 332.209  160.105  170.389      1714.73
 358.423  148.285  318.762      1706.07
 343.932  149.625  296.080      1696.54
 180.899   43.241  117.632      1679.08
   9.528   86.060  149.170      1669.70
 180.349   85.549  258.261      1667.10
  60.304  102.231  182.017      1665.70
 334.529  149.697  302.707      1665.51
 322.338  152.905  263.205      1662.70
 104.407   29.238  174.456      1661.04
 216.312   32.928   93.482      1653.24
 329.293   94.785  130.730      1640.25
  18.185   99.754  102.000      1635.92
 356.193   32.846  359.842      1634.19
 277.722   77.626  181.491      1616.00
 188.853   46.387   69.750      1606.48
 165.853  162.150  329.604      1606.48
 180.285   31.614   75.369      1603.01
 194.204  155.259  256.300      1594.35
 188.312   37.932   85.052      1592.62
 356.612  158.162  339.905      1587.42
 187.645  151.665  201.393      1587.42
  17.204   75.865  125.482      1587.42
 350.701  149.103  301.213      1583.09
 180.361  144.242   64.946      1580.50
 179.576   84.242  279.703      1578.76
 181.138   39.123   73.621      1569.24
 151.393   29.719   95.581      1563.18
   9.812   38.114  183.493      1557.98
 166.849  108.604  219.424      1557.98
   9.194   34.413  168.591      1548.89
  63.980  110.800  316.920      1546.29
   0.856   77.107  121.292      1537.20
  78.049    0.760  196.637      1536.33
